File: polyN_optimization/AA7020-T6_results/DATA/NT6_90_1.csv
Time[s],Displacement[mm],Force[kN],AxStrain_1,AxStrain_2,Thickness[mm],OuterWidth[mm],InnerWidth[mm]
0.54,0,-0.010912,0,0,1.0239,19.697,9.9486
2.54,0.001626,0.0095768,0.00013499,0,0,0,0
4.54,0.003173,0.084432,0.00010099,0,0,0,0
6.54,0.0048,0.14786,7.2997e-05,0,0,0,0
8.54,0.006282,0.20172,8.8996e-05,0,0,0,0
10.54,0.0082,0.25758,0.00023797,0,0,0,0
12.54,0.010283,0.31015,0.00021098,0,0,0,0
14.54,0.01123,0.36286,0.00047389,0,0,0,0
16.54,0.012229,0.41786,0.00066678,0,0,0,0
18.54,0.012791,0.46857,0.00039892,0,0,0,0
20.54,0.014405,0.52172,0.00047389,0,0,0,0
22.54,0.017345,0.57586,0.00059582,0,0,0,0
24.54,0.0183,0.62858,0.0006398,0,0,0,0
26.54,0.01923,0.682,0.00073373,0,0,0,0
28.54,0.019484,0.73672,0.00059882,0,0,0,0
30.54,0.021176,0.79086,0.0007717,0,0,0,0
32.54,0.023497,0.844,0.00093057,0,0,0,0
34.55,0.025551,0.89871,0.0010754,0,0,0,0
36.54,0.026736,0.95343,0.0011563,0,0,0,0
38.54,0.028008,1.0054,0.0010624,0,0,0,0
40.54,0.029483,1.0601,0.00081567,0,0,0,0
42.54,0.031121,1.1143,0.0010624,0,0,0,0
44.54,0.0326,1.1674,0.0012652,0,0,0,0
46.54,0.034166,1.2201,0.0016397,0,0,0,0
48.54,0.035875,1.2744,0.0012213,0,0,0,0
50.54,0.037368,1.3291,0.0012712,0,0,0,0
52.54,0.038769,1.3814,0.0015248,0,0,0,0
54.54,0.040061,1.4354,0.0016297,0,0,0,0
56.54,0.041097,1.4881,0.0021766,0,0,0,0
58.54,0.043174,1.5421,0.0017884,0,0,0,0
60.54,0.04559,1.5953,0.0016297,0,0,0,0
62.54,0.04712,1.6484,0.0015658,0,0,0,0
64.54,0.048111,1.7004,0.0018024,0,0,0,0
66.54,0.049025,1.7541,0.0021297,0,0,0,0
68.54,0.050331,1.8071,0.0020858,0,0,0,0
70.54,0.05272,1.8584,0.002011,0,0,0,0
72.54,0.054764,1.9114,0.0016496,0,0,0,0
74.54,0.055915,1.9634,0.0017375,0,0,0,0
76.54,0.056781,2.0171,0.0023283,0,0,0,0
78.54,0.058179,2.0686,0.0024869,0,0,0,0
80.54,0.060297,2.1197,0.0021667,0,0,0,0
82.54,0.062389,2.1704,0.0021527,0,0,0,0
84.54,0.06382,2.2211,0.0020449,0,0,0,0
86.54,0.064595,2.2724,0.0022614,0,0,0,0
88.54,0.066142,2.3224,0.0027572,0,0,0,0
90.54,0.06759,2.3741,0.0025916,0,0,0,0
92.54,0.069414,2.4241,0.0025448,0,0,0,0
94.54,0.071167,2.4751,0.0025318,0,0,0,0
96.54,0.072859,2.5256,0.002832,0,0,0,0
98.54,0.075471,2.5764,0.0031251,0,0,0,0
100.54,0.076486,2.6264,0.0031251,0,0,0,0
102.54,0.077129,2.6771,0.0028988,0,0,0,0
104.54,0.079163,2.7277,0.0028489,0,0,0,0
106.54,0.081724,2.7764,0.0030573,0,0,0,0
108.54,0.085139,2.8257,0.0034221,0,0,0,0
110.54,0.087139,2.8741,0.0037828,0,0,0,0
112.54,0.088881,2.9224,0.0035467,0,0,0,0
114.54,0.0906,2.9696,0.0036145,0,0,0,0
116.54,0.093399,3.015,0.003749,0,0,0,0
118.54,0.096475,3.0601,0.0043555,0,0,0,0
120.54,0.099835,3.1044,0.0052313,0,0,0,0
122.54,0.10329,3.1471,0.0051636,0,0,0,0
124.54,0.10734,3.1876,0.0050632,0,0,0,0
126.54,0.111,3.2276,0.0054332,0,0,0,0
128.54,0.11529,3.265,0.0060049,0,0,0,0
130.54,0.11932,3.3021,0.0075514,0,0,0,0
132.54,0.12443,3.3379,0.0078531,0,0,0,0
134.54,0.12984,3.3741,0.0077866,0,0,0,0
136.54,0.13549,3.4067,0.0080545,0,0,0,0
138.54,0.14135,3.4394,0.0091619,0,0,0,0
140.54,0.14767,3.4714,0.010603,0,0,0,0
142.54,0.15343,3.5016,0.011573,0,0,0,0
144.54,0.15914,3.5329,0.011674,0,0,0,0
146.54,0.16605,3.5616,0.011841,0,0,0,0
148.54,0.17308,3.5894,0.012743,0,0,0,0
150.54,0.17935,3.6164,0.014279,0,0,0,0
152.54,0.18621,3.6439,0.015712,0,0,0,0
154.54,0.1942,3.6687,0.016078,0,0,0,0
156.54,0.20175,3.6949,0.016046,0,0,0,0
158.54,0.20868,3.7194,0.017143,0,0,0,0
160.54,0.21728,3.7441,0.018539,0,0,0,0
162.54,0.2255,3.7681,0.019602,0,0,0,0
164.54,0.23294,3.7909,0.020299,0,0,0,0
166.54,0.24093,3.8137,0.020596,0,0,0,0
168.54,0.24976,3.8364,0.021591,0,0,0,0
170.54,0.25738,3.8587,0.022716,0,0,0,0
172.54,0.26533,3.879,0.023873,0,0,0,0
174.54,0.27416,3.9011,0.024567,0,0,0,0
176.54,0.28262,3.922,0.02526,0,0,0,0
178.54,0.29138,3.9424,0.026283,0,0,0,0
180.54,0.30092,3.9624,0.027402,0,0,0,0
182.54,0.30928,3.9821,0.028192,0,0,0,0
184.54,0.31828,4.0014,0.028948,0,0,0,0
186.54,0.32793,4.0204,0.029868,0,0,0,0
188.54,0.33679,4.0397,0.030919,0,0,0,0
190.54,0.34542,4.0577,0.031706,0,0,0,0
192.54,0.35567,4.0761,0.032492,0,0,0,0
194.54,0.36393,4.0937,0.033442,0,0,0,0
196.54,0.37354,4.1107,0.034162,0,0,0,0
198.54,0.38322,4.1284,0.03524,0,0,0,0
200.54,0.39215,4.1454,0.036285,0,0,0,0
202.54,0.40122,4.1627,0.037067,0,0,0,0
204.54,0.41127,4.1787,0.038176,0,0,0,0
206.54,0.42088,4.1957,0.039022,0,0,0,0
208.54,0.42978,4.211,0.039966,0,0,0,0
210.54,0.44006,4.2274,0.040842,0,0,0,0
212.54,0.44964,4.2439,0.041654,0,0,0,0
214.54,0.45888,4.259,0.042952,0,0,0,0
216.54,0.46876,4.2741,0.043795,0,0,0,0
218.54,0.47895,4.2894,0.044572,0,0,0,0
220.54,0.48913,4.304,0.045446,0,0,0,0
222.54,0.5004,4.319,0.046705,0,0,0,0
224.54,0.51011,4.3344,0.047706,0,0,0,0
226.54,0.52053,4.3477,0.048963,0,0,0,0
228.54,0.53092,4.3621,0.049736,0,0,0,0
230.54,0.54077,4.3761,0.050348,0,0,0,0
232.54,0.55139,4.3897,0.051345,0,0,0,0
234.54,0.56181,4.4034,0.052534,0,0,0,0
236.54,0.57207,4.417,0.053881,0,0,0,0
238.54,0.58222,4.431,0.054682,0,0,0,0
240.54,0.5922,4.4434,0.055387,0,0,0,0
242.54,0.60299,4.4557,0.056379,0,0,0,0
244.54,0.61298,4.469,0.057689,0,0,0,0
246.54,0.62336,4.4816,0.058711,0,0,0,0
248.54,0.63335,4.4943,0.059604,0,0,0,0
250.54,0.64465,4.506,0.060369,0,0,0,0
252.54,0.65534,4.5183,0.061388,0,0,0,0
254.54,0.6661,4.53,0.062755,0,0,0,0
256.54,0.67663,4.5426,0.06393,0,0,0,0
258.54,0.68783,4.553,0.064914,0,0,0,0
260.54,0.69835,4.5647,0.065834,0,0,0,0
262.54,0.70891,4.576,0.066783,0,0,0,0
264.54,0.71879,4.5876,0.06827,0,0,0,0
266.54,0.73056,4.5983,0.069534,0,0,0,0
268.54,0.74119,4.609,0.070386,0,0,0,0
270.54,0.75246,4.6197,0.071331,0,0,0,0
272.54,0.76413,4.6304,0.072496,0,0,0,0
274.54,0.77438,4.6407,0.07388,0,0,0,0
276.54,0.78538,4.6507,0.075199,0,0,0,0
278.54,0.79672,4.661,0.075952,0,0,0,0
280.54,0.80788,4.6717,0.077175,0,0,0,0
282.54,0.81881,4.6813,0.078552,0,0,0,0
284.54,0.83039,4.6904,0.079802,0,0,0,0
286.54,0.84132,4.6997,0.081083,0,0,0,0
288.54,0.85252,4.7097,0.082361,0,0,0,0
290.54,0.86439,4.719,0.083452,0,0,0,0
292.54,0.87505,4.7287,0.084727,0,0,0,0
294.54,0.88672,4.737,0.086249,0,0,0,0
296.54,0.89793,4.746,0.087491,0,0,0,0
298.54,0.90997,4.755,0.088699,0,0,0,0
300.54,0.9211,4.7636,0.090339,0,0,0,0
302.54,0.9322,4.7716,0.091605,0,0,0,0
304.54,0.94286,4.7799,0.092871,0,0,0,0
306.54,0.95542,4.7887,0.093949,0,0,0,0
308.54,0.96638,4.7964,0.095365,0,0,0,0
310.54,0.97775,4.804,0.097086,0,0,0,0
312.54,0.98892,4.812,0.098589,0,0,0,0
314.54,0.99961,4.8197,0.10006,0,0,0,0
316.54,1.0129,4.8277,0.10119,0,0,0,0
318.54,1.0242,4.835,0.10281,0,0,0,0
320.54,1.0352,4.8417,0.10421,0,0,0,0
322.54,1.0473,4.849,0.10595,0,0,0,0
324.54,1.0591,4.8567,0.10729,0,0,0,0
326.54,1.07,4.8626,0.10875,0,0,0,0
328.54,1.0826,4.8693,0.11023,0,0,0,0
330.54,1.0938,4.876,0.11205,0,0,0,0
332.54,1.1051,4.8823,0.11347,0,0,0,0
334.54,1.1167,4.889,0.11531,0,0,0,0
336.54,1.1294,4.8953,0.11706,0,0,0,0
338.54,1.1421,4.9013,0.11868,0,0,0,0
340.54,1.154,4.9077,0.12042,0,0,0,0
342.54,1.1658,4.913,0.12216,0,0,0,0
344.54,1.1779,4.9184,0.1239,0,0,0,0
346.54,1.1898,4.924,0.12593,0,0,0,0
348.54,1.2017,4.929,0.12766,0,0,0,0
350.54,1.2142,4.9347,0.12938,0,0,0,0
352.54,1.2257,4.9396,0.13132,0,0,0,0
354.54,1.2382,4.944,0.13354,0,0,0,0
356.54,1.2506,4.949,0.13573,0,0,0,0
358.54,1.2623,4.954,0.13753,0,0,0,0
360.54,1.274,4.958,0.13953,0,0,0,0
362.54,1.2874,4.962,0.14179,0,0,0,0
364.54,1.299,4.9667,0.14432,0,0,0,0
366.54,1.3126,4.97,0.14689,0,0,0,0
368.54,1.324,4.9743,0.14896,0,0,0,0
370.54,1.337,4.9773,0.15153,0,0,0,0
372.54,1.3497,4.98,0.15414,0,0,0,0
374.54,1.3618,4.984,0.15675,0,0,0,0
376.54,1.3748,4.9867,0.15932,0,0,0,0
378.54,1.3869,4.9893,0.16151,0,0,0,0
380.54,1.3997,4.992,0.16436,0,0,0,0
382.54,1.4129,4.9943,0.16737,0,0,0,0
384.54,1.4247,4.9963,0.17051,0,0,0,0
386.54,1.4376,4.998,0.17324,0,0,0,0
388.54,1.4506,4.9993,0.1764,0,0,0,0
390.54,1.4634,5,0.17988,0,0,0,0
392.54,1.4765,5.001,0.18355,0,0,0,0
394.54,1.4888,5.0014,0.18723,0,0,0,0
396.54,1.5026,5.0017,0.19087,0,0,0,0
398.54,1.5152,5.001,0.19473,0,0,0,0
400.54,1.5279,5,0.1989,0,0,0,0
402.54,1.5418,4.9983,0.20385,0,0,0,0
404.54,1.5543,4.996,0.20787,0,0,0,0
406.54,1.568,4.993,0.21218,0,0,0,0
408.54,1.5815,4.9893,0.21714,0,0,0,0
410.54,1.5942,4.9847,0.22255,0,0,0,0
412.54,1.6093,4.9787,0.22862,0,0,0,0
414.54,1.6232,4.97,0.23458,0,0,0,0
416.54,1.6381,4.9607,0.24109,0,0,0,0
418.54,1.6512,4.9481,0.24835,0,0,0,0
420.54,1.6664,4.9331,0.25672,0,0,0,0
422.54,1.6825,4.9131,0.26587,0,0,0,0
424.54,1.698,4.8867,0.27478,0,0,0,0