File: polyN_optimization/AA7020-T6_results/DATA/SL_180_NT20_90_2.csv
Time[s];Displacement[mm];Force[kN];AxStrain_1;AxStrain_2;Thickness[mm];OuterWidth[mm];InnerWidth[mm]
0;0;-0.0085;0;0;1.017;20;10
1.976;0.004069052;-0.0016;-0.00020002;0;0;0;0
3.976;0.000973369;0.0022;0.001957732;0;0;0;0
5.9762;0.000630281;-0.0003;0.000513903;0;0;0;0
7.9759;-0.002326975;0.0057;0.000468311;0;0;0;0
9.9759;0.001935174;-0.0006;-0.00029478;0;0;0;0
11.9757;-0.001112497;0.0111;0.001467344;0;0;0;0
13.9757;0.002505528;0.1394;-0.000254418;0;0;0;0
15.9757;0.0116718;0.3473;-0.000672156;0;0;0;0
17.9757;0.01665;0.5028;0.001546172;0;0;0;0
19.9757;0.0232524;0.6848;-0.000238625;0;0;0;0
21.9757;0.0267937;0.8757;-0.000166681;0;0;0;0
23.9755;0.03482209;1.0322;0.000603327;0;0;0;0
25.9756;0.0456036;1.2132;0.000335032;0;0;0;0
27.9756;0.0489329;1.3946;0.001202785;0;0;0;0
29.9755;0.06030071;1.5409;0.000424471;0;0;0;0
31.9755;0.064582;1.7103;-0.000286006;0;0;0;0
33.9754;0.0708408;1.844;0.000748842;0;0;0;0
35.9754;0.0801692;1.9622;0.000629626;0;0;0;0
37.9754;0.0891804;2.0712;0.004608662;0;0;0;0
39.9753;0.0993793;2.1616;0.003626749;0;0;0;0
41.9753;0.111484;2.221;0.003158166;0;0;0;0
43.9751;0.122864;2.2605;0.008657155;0;0;0;0
45.9752;0.133396;2.3345;0.005851269;0;0;0;0
47.9752;0.143143;2.379;0.014171;0;0;0;0
49.9751;0.155229;2.4046;0.0102473;0;0;0;0
51.9749;0.165319;2.4173;0.0127933;0;0;0;0
53.975;0.179299;2.4385;0.0142212;0;0;0;0
55.9749;0.19329;2.4618;0.0145273;0;0;0;0
57.9748;0.205905;2.4941;0.0172245;0;0;0;0
59.9748;0.217771;2.5285;0.0177917;0;0;0;0
61.9749;0.230209;2.5247;0.0218971;0;0;0;0
63.9747;0.239722;2.5649;0.0209097;0;0;0;0
65.9748;0.254956;2.5927;0.0233344;0;0;0;0
67.9748;0.26564;2.5611;0.024328;0;0;0;0
69.9747;0.28068;2.6082;0.0257208;0;0;0;0
71.9747;0.293923;2.6164;0.0292794;0;0;0;0
73.9747;0.306542;2.636;0.0264694;0;0;0;0
75.9745;0.320743;2.6344;0.0290085;0;0;0;0
77.9744;0.333222;2.6549;0.0330292;0;0;0;0
79.9745;0.347988;2.6657;0.0335586;0;0;0;0
81.9745;0.358996;2.7036;0.0333635;0;0;0;0
83.9743;0.372108;2.7131;0.033903;0;0;0;0
85.9743;0.385454;2.7282;0.0362659;0;0;0;0
87.9744;0.402222;2.7301;0.0387786;0;0;0;0
89.9744;0.4125642;2.7431;0.0369273;0;0;0;0
91.9743;0.423998;2.7535;0.0412968;0;0;0;0
93.9741;0.43899;2.7437;0.0409163;0;0;0;0
95.9742;0.451497;2.7659;0.0416335;0;0;0;0
97.974;0.467464;2.8;0.0445137;0;0;0;0
99.974;0.477373;2.7832;0.0448409;0;0;0;0
101.9741;0.491215;2.8177;0.0463863;0;0;0;0
103.9739;0.503222;2.8224;0.04804469;0;0;0;0
105.974;0.517193;2.843;0.0483306;0;0;0;0
107.974;0.531942;2.8142;0.0499557;0;0;0;0
109.9738;0.543709;2.8464;0.0507298;0;0;0;0
111.9738;0.555583;2.8395;0.052704;0;0;0;0
113.9737;0.570052;2.8629;0.0533994;0;0;0;0
115.9738;0.582943;2.8499;0.0551459;0;0;0;0
117.9737;0.596191;2.8818;0.0576663;0;0;0;0
119.9738;0.60912;2.8885;0.0595177;0;0;0;0
121.9737;0.62153;2.8815;0.0589109;0;0;0;0
123.9737;0.637421;2.8897;0.0612618;0;0;0;0
125.9735;0.647489;2.9033;0.0615852;0;0;0;0
127.9736;0.660473;2.9109;0.063482;0;0;0;0
129.9734;0.676387;2.9033;0.0636072;0;0;0;0
131.9735;0.687614;2.927;0.06688117;0;0;0;0
133.9735;0.701107;2.9321;0.067716;0;0;0;0
135.9733;0.715363;2.9343;0.0687025;0;0;0;0
137.9733;0.731445;2.957;0.0713296;0;0;0;0
139.9734;0.742756;2.9485;0.0713443;0;0;0;0
141.9733;0.7552729;2.9438;0.0713426;0;0;0;0
143.9733;0.76965;2.9533;0.073363;0;0;0;0
145.9732;0.780708;2.9706;0.07515304;0;0;0;0
147.9732;0.793883;2.9842;0.0773525;0;0;0;0
149.9732;0.807369;2.977;0.0801706;0;0;0;0
151.9731;0.816741;2.9924;0.0789555;0;0;0;0
153.9729;0.833542;3.0016;0.0820553;0;0;0;0
155.9729;0.849879;3.0146;0.0814393;0;0;0;0
157.973;0.860471;2.9691;0.0825028;0;0;0;0
159.9728;0.873494;3.0196;0.0823817;0;0;0;0
161.9728;0.884873;3.0082;0.0869194;0;0;0;0
163.9728;0.898442;3.024;0.08748378;0;0;0;0
165.9727;0.913902;3.0171;0.0891268;0;0;0;0
167.9728;0.925234;3.0402;0.0890931;0;0;0;0
169.9728;0.935487;3.0538;0.0936134;0;0;0;0
171.9727;0.951734;3.0534;0.0934232;0;0;0;0
173.9726;0.969355;3.0632;0.0950294;0;0;0;0
175.9727;0.984026;3.0812;0.0960691;0;0;0;0
177.9726;0.990956;3.0696;0.0985028;0;0;0;0
179.9726;1.0057;3.0373;0.0997215;0;0;0;0
181.9725;1.02042;3.0484;0.100869;0;0;0;0
183.9725;1.03266;3.0787;0.101671;0;0;0;0
185.9724;1.04448;3.0727;0.101505;0;0;0;0
187.9723;1.05895;3.0866;0.104434;0;0;0;0
189.9722;1.07073;3.0914;0.1065435;0;0;0;0
191.9724;1.08708;3.0847;0.106258;0;0;0;0
193.9722;1.10321;3.0895;0.109732;0;0;0;0
195.9721;1.1143;3.0866;0.108651;0;0;0;0
197.9722;1.12194;3.1008;0.109345;0;0;0;0
199.972;1.1408;3.1103;0.111759;0;0;0;0
201.972;1.15166;3.0983;0.112904;0;0;0;0
203.9721;1.16489;3.1144;0.115416;0;0;0;0
205.9719;1.17691;3.129;0.11816;0;0;0;0
207.972;1.19125;3.1226;0.119348;0;0;0;0
209.9718;1.19905;3.1315;0.119885;0;0;0;0
211.9719;1.21681;3.1375;0.121177;0;0;0;0
213.9718;1.22844;3.1324;0.122919;0;0;0;0
215.9717;1.24831;3.1435;0.12364;0;0;0;0
217.9718;1.2517;3.1561;0.126569;0;0;0;0
219.9718;1.26614;3.1362;0.129394;0;0;0;0
221.9716;1.2841;3.1476;0.131913;0;0;0;0
223.9717;1.29907;3.1524;0.131141;0;0;0;0
225.9717;1.3107;3.1558;0.131622;0;0;0;0
227.9715;1.32291;3.1552;0.136448;0;0;0;0
229.9716;1.33935;3.1533;0.131994;0;0;0;0
231.9716;1.34946;3.1577;0.138555;0;0;0;0
233.9714;1.36416;3.1994;0.138596;0;0;0;0
235.9715;1.37675;3.1738;0.13871;0;0;0;0
237.9713;1.39151;3.1937;0.140061;0;0;0;0
239.9713;1.40478;3.1893;0.139431;0;0;0;0
241.9712;1.41389;3.1896;0.143254;0;0;0;0
243.9713;1.42912;3.1998;0.144006;0;0;0;0
245.9713;1.44465;3.2089;0.148611;0;0;0;0
247.9711;1.45924;3.1937;0.148447;0;0;0;0
249.9712;1.4708;3.1824;0.149265;0;0;0;0
251.971;1.48504;3.2168;0.148455;0;0;0;0
253.971;1.4962;3.1985;0.148556;0;0;0;0
255.9711;1.50895;3.1975;0.152676;0;0;0;0
257.971;1.52282;3.2054;0.155877;0;0;0;0
259.971;1.53364;3.2241;0.154741;0;0;0;0
261.9708;1.54778;3.2304;0.157433;0;0;0;0
263.9708;1.56283;3.213;0.156746;0;0;0;0
265.9707;1.57613;3.2266;0.159081;0;0;0;0
267.9707;1.58727;3.2203;0.161005;0;0;0;0
269.9708;1.60083;3.2351;0.163876;0;0;0;0
271.9706;1.61511;3.2092;0.164158;0;0;0;0
273.9707;1.63071;3.2238;0.164833;0;0;0;0
275.9706;1.64286;3.2276;0.167186;0;0;0;0
277.9707;1.65713;3.2156;0.168306;0;0;0;0
279.9706;1.66925;3.2434;0.168325;0;0;0;0
281.9704;1.68051;3.238;0.169371;0;0;0;0
283.9704;1.69433;3.226;0.174205;0;0;0;0
285.9705;1.70518;3.2472;0.174949;0;0;0;0
287.9703;1.71968;3.2314;0.172367;0;0;0;0
289.9703;1.73599;3.2348;0.177939;0;0;0;0
291.9703;1.74677;3.2642;0.176506;0;0;0;0
293.9703;1.76182;3.2503;0.178636;0;0;0;0
295.9702;1.77081;3.2159;0.180141;0;0;0;0
297.9703;1.78684;3.2601;0.185665;0;0;0;0
299.9702;1.80581;3.2544;0.183686;0;0;0;0
301.9701;1.81246;3.2484;0.184287;0;0;0;0
303.9702;1.82239;3.2683;0.188959;0;0;0;0
305.97;1.84063;3.2468;0.188841;0;0;0;0
307.9701;1.85528;3.2462;0.191643;0;0;0;0
309.97;1.87372;3.2702;0.192576;0;0;0;0
311.97;1.87923;3.2582;0.193357;0;0;0;0
313.9699;1.89309;3.2554;0.194886;0;0;0;0
315.9698;1.9094;3.2756;0.197803;0;0;0;0
317.9697;1.91876;3.2661;0.200078;0;0;0;0
319.9698;1.93368;3.2566;0.202631;0;0;0;0
321.9698;1.94511;3.2661;0.201126;0;0;0;0
323.9696;1.96191;3.2778;0.203488;0;0;0;0
325.9697;1.97037;3.2617;0.204848;0;0;0;0
327.9695;1.98524;3.274;0.210063;0;0;0;0
329.9695;2.00135;3.2949;0.209365;0;0;0;0
331.9696;2.01513;3.2642;0.211939;0;0;0;0
333.9694;2.02779;3.257;0.215838;0;0;0;0
335.9695;2.0391;3.2617;0.217323;0;0;0;0
337.9693;2.05337;3.2753;0.217148;0;0;0;0
339.9695;2.069;3.2715;0.221348;0;0;0;0
341.9694;2.08118;3.2557;0.222031;0;0;0;0
343.9692;2.09201;3.2984;0.223754;0;0;0;0
345.9692;2.10835;3.2898;0.226789;0;0;0;0
347.9693;2.12127;3.2826;0.22998;0;0;0;0
349.9692;2.13374;3.2854;0.231322;0;0;0;0
351.9691;2.14612;3.286;0.235559;0;0;0;0
353.969;2.16174;3.2731;0.238807;0;0;0;0
355.969;2.17415;3.2642;0.242031;0;0;0;0
357.9689;2.19021;3.263;0.245322;0;0;0;0
359.9689;2.1981;3.269;0.247488;0;0;0;0
361.969;2.21231;3.2513;0.249993;0;0;0;0
363.969;2.23496;3.2645;0.254848;0;0;0;0
365.9689;2.23853;3.2756;0.257392;0;0;0;0
367.9689;2.25536;3.2626;0.261006;0;0;0;0
369.9687;2.26827;3.2668;0.266933;0;0;0;0
371.9687;2.27889;3.2803;0.267103;0;0;0;0
373.9686;2.29304;3.2589;0.269836;0;0;0;0
375.9686;2.30629;3.2544;0.275753;0;0;0;0
377.9687;2.31892;3.2699;0.279678;0;0;0;0
379.9687;2.33286;3.2532;0.281679;0;0;0;0
381.9685;2.34779;3.2528;0.285436;0;0;0;0
383.9686;2.36201;3.2573;0.291392;0;0;0;0
385.9684;2.37185;3.2611;0.294141;0;0;0;0
387.9684;2.38595;3.2358;0.299029;0;0;0;0
389.9685;2.40236;3.2494;0.30481;0;0;0;0
391.9684;2.41414;3.2219;0.310375;0;0;0;0
393.9683;2.43312;3.2118;0.31572;0;0;0;0
395.9683;2.43923;3.213;0.320978;0;0;0;0
397.9683;2.45424;3.2083;0.321997;0;0;0;0
399.9683;2.47144;3.2219;0.332055;0;0;0;0
401.9682;2.48143;3.2222;0.334576;0;0;0;0
403.9682;2.49257;3.1843;0.340252;0;0;0;0
405.9682;2.50706;3.2064;0.344996;0;0;0;0
407.9681;2.52293;3.1751;0.351085;0;0;0;0
409.9681;2.53705;3.1912;0.357873;0;0;0;0
411.968;2.54803;3.1729;0.372188;0;0;0;0
413.9679;2.56113;3.1378;0.384788;0;0;0;0
415.9678;2.57653;3.1236;0.395943;0;0;0;0
417.9678;2.5889;3.1233;0.395828;0;0;0;0
419.9679;2.60414;3.116;0.40626;0;0;0;0
421.9677;2.61958;3.0708;0.412551;0;0;0;0
423.9677;2.63134;3.0642;0.418896;0;0;0;0
425.9676;2.64835;3.0199;0.414303;0;0;0;0
426.4678;2.65274;3.0032;0.420551;0;0;0;0