File: polyN_optimization/AA7020-T6_results/DATA/SL_60_NT20_90_1.csv
Time[s];Displacement[mm];Force[kN];AxStrain_1;AxStrain_2;Thickness[mm];OuterWidth[mm];InnerWidth[mm]
0;0;-0.006;0;0;1.021;20;10
1.9764;0.001787262;0;0.000740797;0;0;0;0
3.9761;-0.000264806;-0.0063;0.000264251;0;0;0;0
5.9761;0.00169564;0.0168;0.000603389;0;0;0;0
7.9761;0.004089307;0.1814;0.000198195;0;0;0;0
9.9762;0.0154209;0.3815;0.000837149;0;0;0;0
11.9759;0.0182677;0.5619;0.000801464;0;0;0;0
13.9761;0.0316125;0.7736;0.000510584;0;0;0;0
15.9761;0.0313087;0.9484;0.002078196;0;0;0;0
17.9758;0.0375751;1.138;0.001020907;0;0;0;0
19.9758;0.0465777;1.3469;0.00144895;0;0;0;0
21.9758;0.0516742;1.5315;0.002568128;0;0;0;0
23.976;0.0606448;1.7103;0.001340173;0;0;0;0
25.9757;0.060423;1.9148;0.002847727;0;0;0;0
27.9756;0.071738;2.1003;0.002334772;0;0;0;0
29.9758;0.072835;2.2612;0.002263508;0;0;0;0
31.9756;0.0860783;2.4464;0.004848939;0;0;0;0
33.9757;0.0884554;2.6113;0.00275513;0;0;0;0
35.9755;0.09351951;2.7598;0.005376592;0;0;0;0
37.9755;0.105445;2.8825;0.004877372;0;0;0;0
39.9756;0.110444;2.9646;0.004895142;0;0;0;0
41.9756;0.124758;3.0452;0.008871248;0;0;0;0
43.9755;0.139299;3.1151;0.007672278;0;0;0;0
45.9755;0.143717;3.1729;0.0110989;0;0;0;0
47.9755;0.157164;3.1934;0.0120503;0;0;0;0
49.9754;0.172427;3.2788;0.0123978;0;0;0;0
51.9754;0.185612;3.3296;0.0152369;0;0;0;0
53.9753;0.19429;3.3552;0.0152387;0;0;0;0
55.9753;0.209334;3.3777;0.0172855;0;0;0;0
57.975;0.221456;3.4396;0.0176048;0;0;0;0
59.975;0.228413;3.4355;0.01964155;0;0;0;0
61.9749;0.239268;3.5164;0.0203399;0;0;0;0
63.9752;0.255404;3.5287;0.0210763;0;0;0;0
65.9751;0.264989;3.5218;0.0232281;0;0;0;0
67.9748;0.274591;3.5676;0.0238613;0;0;0;0
69.9748;0.287977;3.5973;0.0253109;0;0;0;0
71.9747;0.303705;3.6526;0.0265741;0;0;0;0
73.9749;0.312739;3.6627;0.0267376;0;0;0;0
75.9747;0.322798;3.6703;0.028367;0;0;0;0
77.9749;0.337803;3.6893;0.0292484;0;0;0;0
79.9748;0.353746;3.7149;0.0308201;0;0;0;0
81.9748;0.368393;3.7389;0.0320972;0;0;0;0
83.9747;0.375085;3.7765;0.0336057;0;0;0;0
85.9744;0.390769;3.7866;0.0336109;0;0;0;0
87.9746;0.403896;3.8062;0.0349051;0;0;0;0
89.9746;0.42208;3.8388;0.0360254;0;0;0;0
91.9746;0.428524;3.829;0.0368209;0;0;0;0
93.9743;0.44021;3.8571;0.037657;0;0;0;0
95.9743;0.455376;3.8723;0.0381728;0;0;0;0
97.9742;0.473826;3.882;0.0396276;0;0;0;0
99.9744;0.47818;3.9295;0.0404957;0;0;0;0
101.9744;0.494129;3.9276;0.0417501;0;0;0;0
103.9741;0.509627;3.9513;0.0430321;0;0;0;0
105.9743;0.51646;3.9418;0.0436357;0;0;0;0
107.9742;0.532037;3.9727;0.0453335;0;0;0;0
109.9742;0.546026;3.9892;0.0462205;0;0;0;0
111.9739;0.558326;4.029;0.046904;0;0;0;0
113.9741;0.569556;4.0097;0.0478748;0;0;0;0
115.9738;0.584347;4.035;0.0492305;0;0;0;0
117.9738;0.598427;4.06;0.05072197;0;0;0;0
119.9738;0.61736;4.0565;0.05193996;0;0;0;0
121.974;0.622107;4.0856;0.0519806;0;0;0;0
123.9739;0.635241;4.0957;0.0531514;0;0;0;0
125.9736;0.650847;4.0938;0.0551154;0;0;0;0
127.9738;0.665858;4.0903;0.0557708;0;0;0;0
129.9738;0.671943;4.1421;0.0567297;0;0;0;0
131.9737;0.686314;4.1377;0.0575746;0;0;0;0
133.9737;0.703056;4.1475;0.0595164;0;0;0;0
135.9737;0.717716;4.15;0.0599589;0;0;0;0
137.9734;0.730038;4.1722;0.0615351;0;0;0;0
139.9736;0.742373;4.1984;0.0624079;0;0;0;0
141.9735;0.755346;4.199;0.0635296;0;0;0;0
143.9736;0.771407;4.2398;0.0646685;0;0;0;0
145.9734;0.783469;4.2385;0.0653462;0;0;0;0
147.9732;0.792546;4.236;0.0666886;0;0;0;0
149.9734;0.807882;4.2527;0.0683026;0;0;0;0
151.9734;0.818159;4.2629;0.0689779;0;0;0;0
153.9731;0.834802;4.279;0.0697759;0;0;0;0
155.9732;0.845679;4.2704;0.0717823;0;0;0;0
157.973;0.860984;4.2768;0.0730496;0;0;0;0
159.9732;0.869097;4.3084;0.0740385;0;0;0;0
161.9731;0.880365;4.2973;0.0754602;0;0;0;0
163.9729;0.89419;4.3273;0.0759652;0;0;0;0
165.9731;0.906211;4.3194;0.0770735;0;0;0;0
167.9728;0.922957;4.3504;0.0790076;0;0;0;0
169.973;0.93598;4.3494;0.0806035;0;0;0;0
171.9727;0.944175;4.364;0.0811684;0;0;0;0
173.9729;0.962699;4.3444;0.0828087;0;0;0;0
175.9726;0.975469;4.3662;0.0839997;0;0;0;0
177.9726;0.987786;4.3921;0.0849482;0;0;0;0
179.9728;1.00396;4.4013;0.0862596;0;0;0;0
181.9725;1.01441;4.3823;0.0872747;0;0;0;0
183.9727;1.02617;4.4117;0.0885144;0;0;0;0
185.9724;1.04346;4.4066;0.0891141;0;0;0;0
187.9726;1.04937;4.4294;0.09127119;0;0;0;0
189.9726;1.06519;4.4316;0.0921086;0;0;0;0
191.9725;1.07877;4.43;0.0940253;0;0;0;0
193.9722;1.09554;4.4288;0.09440555;0;0;0;0
195.9724;1.10923;4.4717;0.0966388;0;0;0;0
197.9724;1.11846;4.4487;0.0982248;0;0;0;0
199.9722;1.1335;4.4465;0.0989982;0;0;0;0
201.9723;1.1474;4.4825;0.100501;0;0;0;0
203.9723;1.16265;4.4942;0.101934;0;0;0;0
205.972;1.17081;4.4926;0.103549;0;0;0;0
207.9722;1.1847;4.4762;0.104764;0;0;0;0
209.9719;1.19937;4.5062;0.106377;0;0;0;0
211.9721;1.21281;4.4954;0.107271;0;0;0;0
213.9721;1.22243;4.4986;0.109618;0;0;0;0
215.9718;1.23793;4.5147;0.110678;0;0;0;0
217.9717;1.25318;4.4989;0.112103;0;0;0;0
219.972;1.26809;4.5141;0.113335;0;0;0;0
221.9717;1.27452;4.5239;0.114971;0;0;0;0
223.9719;1.29146;4.5346;0.116911;0;0;0;0
225.9716;1.30557;4.5653;0.118299;0;0;0;0
227.9716;1.3206;4.5637;0.119985;0;0;0;0
229.9715;1.32845;4.5318;0.12109;0;0;0;0
231.9715;1.34223;4.5596;0.122635;0;0;0;0
233.9718;1.35861;4.5681;0.125156;0;0;0;0
235.9716;1.37425;4.5675;0.125665;0;0;0;0
237.9713;1.38435;4.5577;0.128594;0;0;0;0
239.9716;1.39587;4.5792;0.129597;0;0;0;0
241.9713;1.41219;4.5944;0.131295;0;0;0;0
243.9712;1.426;4.5593;0.134078;0;0;0;0
245.9712;1.43538;4.5982;0.135879;0;0;0;0
247.9714;1.44828;4.5798;0.137369;0;0;0;0
249.9714;1.4629;4.6026;0.139078;0;0;0;0
251.9711;1.47882;4.5915;0.140577;0;0;0;0
253.9713;1.49408;4.6086;0.142744;0;0;0;0
255.971;1.50177;4.6184;0.145485;0;0;0;0
257.9712;1.51732;4.6256;0.147111;0;0;0;0
259.9709;1.53161;4.6399;0.149412;0;0;0;0
261.9711;1.54382;4.6019;0.150943;0;0;0;0
263.9711;1.5511;4.6415;0.152825;0;0;0;0
265.9708;1.56906;4.625;0.154816;0;0;0;0
267.971;1.58288;4.6241;0.157103;0;0;0;0
269.9709;1.5996;4.625;0.160202;0;0;0;0
271.9706;1.60796;4.6234;0.16231;0;0;0;0
273.9709;1.62383;4.6462;0.164782;0;0;0;0
275.9708;1.63783;4.6396;0.16822;0;0;0;0
277.9706;1.65324;4.6487;0.16997;0;0;0;0
279.9708;1.66057;4.6342;0.173023;0;0;0;0
281.9704;1.6741;4.65;0.174838;0;0;0;0
283.9707;1.684;4.6702;0.176497;0;0;0;0
285.9704;1.70528;4.6731;0.179105;0;0;0;0
287.9706;1.70494;4.6718;0.181095;0;0;0;0
289.9703;1.72892;4.6566;0.183492;0;0;0;0
291.9705;1.73754;4.6408;0.185651;0;0;0;0
293.9704;1.7588;4.6803;0.187573;0;0;0;0
295.9704;1.76828;4.6519;0.190808;0;0;0;0
297.9704;1.7815;4.644;0.192842;0;0;0;0
299.9703;1.7946;4.6471;0.195752;0;0;0;0
301.97;1.80644;4.6677;0.197084;0;0;0;0
303.9702;1.82328;4.6102;0.201167;0;0;0;0
305.9699;1.83414;4.6452;0.204725;0;0;0;0
307.9699;1.84449;4.6718;0.209521;0;0;0;0
309.9701;1.86294;4.6648;0.213203;0;0;0;0
311.9701;1.87099;4.6332;0.216456;0;0;0;0
313.9701;1.88626;4.686;0.22045;0;0;0;0
315.97;1.90307;4.667;0.225451;0;0;0;0
317.9697;1.91953;4.6392;0.229394;0;0;0;0
319.9699;1.93079;4.6402;0.233623;0;0;0;0
321.9699;1.94042;4.6415;0.236996;0;0;0;0
323.9696;1.95767;4.6452;0.240654;0;0;0;0
325.9698;1.97021;4.662;0.247334;0;0;0;0
327.9698;1.9814;4.6535;0.252136;0;0;0;0
329.9697;1.99317;4.6433;0.257475;0;0;0;0
331.9694;2.01037;4.6452;0.264324;0;0;0;0
333.9694;2.02469;4.6462;0.270978;0;0;0;0
335.9694;2.03874;4.6408;0.28017;0;0;0;0
337.9695;2.04676;4.6509;0.282521;0;0;0;0
339.9695;2.057;4.632;0.290607;0;0;0;0
341.9693;2.07739;4.6383;0.298075;0;0;0;0
343.9694;2.09104;4.5963;0.303758;0;0;0;0
345.9694;2.10147;4.5858;0.309646;0;0;0;0
347.9691;2.1147;4.6187;0.318511;0;0;0;0
349.9691;2.1271;4.5843;0.329636;0;0;0;0
351.9691;2.14793;4.5662;0.334681;0;0;0;0
353.9692;2.15672;4.5476;0.344783;0;0;0;0
355.969;2.17038;4.5517;0.353013;0;0;0;0
357.9691;2.18665;4.54;0.372873;0;0;0;0
359.9689;2.20135;4.4847;0.381791;0;0;0;0