File: lab_data/DP600_results/DATA/CH_00_1.csv
Time[s],Displacement[mm],Force[kN],AxStrain_1,AxStrain_2,Thickness[mm],OuterWidth[mm],Diameter[mm]
0.61,0,-0.015237,0,0,1.5212,20,4.7722
4.11,0.000632,0.10944,4.5999e-05,6e-06,0,0,0
7.61,0.000678,0.26758,0.00062381,7.5997e-05,0,0,0
11.11,0.000696,0.40257,0.00039592,0.00011799,0,0,0
14.61,0.001541,0.53358,-6.5002e-05,7.9997e-05,0,0,0
18.11,0.001721,0.66585,0.00049288,0.00031795,0,0,0
21.61,0.002258,0.80557,0.00080368,0.00018498,0,0,0
25.11,0.002119,0.94956,0.00033095,0.00043391,0,0,0
28.61,0.00333,1.0924,0.00060881,0.00050987,0,0,0
32.11,0.003075,1.2363,0.00084364,0.00022198,0,0,0
35.61,0.003767,1.3817,0.0007777,0.00042691,0,0,0
39.11,0.004956,1.5271,0.00097952,0.00060582,0,0,0
42.61,0.004737,1.6686,0.0015278,0.00024197,0,0,0
46.11,0.005575,1.808,0.0016536,0.00087062,0,0,0
49.61,0.006595,1.9489,0.0010155,0.00075472,0,0,0
53.11,0.006019,2.0914,0.001419,0.00053286,0,0,0
56.61,0.007055,2.231,0.0018154,0.00056284,0,0,0
60.1,0.008015,2.3701,0.0011973,0.00073473,0,0,0
63.6,0.007399,2.5084,0.0013331,0.00058583,0,0,0
67.11,0.008293,2.6479,0.0018124,0.00074772,0,0,0
70.61,0.009336,2.7869,0.0011783,0.00061581,0,0,0
74.11,0.008697,2.9267,0.0015877,0.00072774,0,0,0
77.61,0.009746,3.0661,0.0014659,0.00086063,0,0,0
81.11,0.011233,3.2081,0.0012672,0.0010295,0,0,0
84.61,0.010362,3.346,0.0018623,0.00078469,0,0,0
88.11,0.011749,3.4841,0.0013731,0.0010255,0,0,0
91.61,0.013053,3.6193,0.001419,0.0012672,0,0,0
95.11,0.012054,3.7529,0.0019311,0.0011643,0,0,0
98.61,0.013835,3.8859,0.0017565,0.0010055,0,0,0
102.11,0.014848,4.0181,0.0019551,0.001409,0,0,0
105.61,0.013735,4.1486,0.0021986,0.0011014,0,0,0
109.11,0.015613,4.2794,0.0021267,0.0013002,0,0,0
112.61,0.016808,4.4099,0.0021826,0.001423,0,0,0
116.11,0.015692,4.5421,0.002447,0.0013231,0,0,0
119.61,0.017844,4.6713,0.0027771,0.0017195,0,0,0
123.11,0.018638,4.8014,0.0025787,0.0017864,0,0,0
126.61,0.017745,4.9317,0.0026784,0.0015877,0,0,0
130.1,0.020128,5.0616,0.0029088,0.0017535,0,0,0
133.6,0.020724,5.1911,0.0026116,0.001984,0,0,0
137.1,0.020327,5.3204,0.00281,0.0016866,0,0,0
140.6,0.022512,5.4496,0.0026445,0.0021168,0,0,0
144.1,0.023009,5.5824,0.0031072,0.0022485,0,0,0
147.6,0.022644,5.7126,0.0029746,0.0020509,0,0,0
151.1,0.025028,5.8439,0.0031072,0.0023472,0,0,0
154.6,0.025227,5.9733,0.0035686,0.0026784,0,0,0
158.1,0.02569,6.1027,0.0032387,0.0024799,0,0,0
161.6,0.027842,6.2329,0.0039651,0.0030085,0,0,0
165.1,0.028338,6.3621,0.004228,0.0029746,0,0,0
168.6,0.029563,6.4896,0.0041623,0.0029746,0,0,0
172.1,0.030954,6.6174,0.0047228,0.0036683,0,0,0
175.6,0.031881,6.7439,0.0047228,0.0036015,0,0,0
179.1,0.033503,6.8721,0.0047557,0.0034371,0,0,0
182.6,0.034629,6.998,0.0051179,0.004459,0,0,0
186.1,0.035787,7.1243,0.0058101,0.0041623,0,0,0
189.6,0.038072,7.2487,0.0056122,0.0040966,0,0,0
193.1,0.038866,7.3743,0.00706,0.0053158,0,0,0
196.6,0.041349,7.4981,0.0070263,0.0050194,0,0,0
200.1,0.043633,7.6207,0.0072238,0.005283,0,0,0
203.6,0.04466,7.7416,0.0079801,0.0069279,0,0,0
207.1,0.04807,7.8634,0.0078154,0.0062047,0,0,0
210.6,0.050586,7.9827,0.0081765,0.0065992,0,0,0
214.1,0.052175,8.1003,0.009981,0.0081437,0,0,0
217.6,0.05671,8.2146,0.0099157,0.0078809,0,0,0
221.1,0.059425,8.3294,0.010341,0.0082429,0,0,0
224.6,0.06257,8.4426,0.012077,0.010309,0,0,0
228.1,0.066609,8.5561,0.011356,0.0097513,0,0,0
231.6,0.070152,8.6649,0.011945,0.010735,0,0,0
235.1,0.075217,8.7717,0.014298,0.012436,0,0,0
238.6,0.07813,8.879,0.014037,0.012208,0,0,0
242.1,0.083725,8.982,0.015342,0.013123,0,0,0
245.6,0.089353,9.0836,0.016938,0.015179,0,0,0
249.1,0.093392,9.1824,0.016547,0.014723,0,0,0
252.6,0.099417,9.2801,0.017849,0.016124,0,0,0
256.1,0.10495,9.3779,0.019279,0.017979,0,0,0
259.6,0.11203,9.4746,0.02035,0.017719,0,0,0
263.1,0.11729,9.5684,0.021776,0.01954,0,0,0
266.6,0.12375,9.6613,0.023653,0.021291,0,0,0
270.1,0.13093,9.7514,0.024364,0.021874,0,0,0
273.6,0.13785,9.8431,0.025526,0.023395,0,0,0
277.1,0.14524,9.932,0.026848,0.024689,0,0,0
280.6,0.15083,10.019,0.028298,0.025786,0,0,0
284.1,0.16003,10.104,0.029295,0.027205,0,0,0
287.6,0.16699,10.187,0.030805,0.028492,0,0,0
291.1,0.1754,10.268,0.032056,0.02965,0,0,0
294.6,0.18152,10.347,0.033466,0.031095,0,0,0
298.1,0.19039,10.424,0.034682,0.032379,0,0,0
301.6,0.19834,10.503,0.036279,0.033883,0,0,0
305.1,0.20705,10.578,0.037874,0.035195,0,0,0
308.6,0.21456,10.651,0.039912,0.03692,0,0,0
312.1,0.22264,10.722,0.040834,0.038355,0,0,0
315.6,0.23148,10.794,0.043024,0.039692,0,0,0
319.1,0.24005,10.864,0.044102,0.041219,0,0,0
322.6,0.24876,10.931,0.045747,0.042678,0,0,0
326.1,0.25634,10.998,0.047233,0.044231,0,0,0
329.6,0.26578,11.063,0.049221,0.045846,0,0,0
333.1,0.27402,11.127,0.050198,0.047174,0,0,0
336.6,0.28445,11.191,0.052273,0.049098,0,0,0
340.1,0.29233,11.254,0.053906,0.050453,0,0,0
343.6,0.30213,11.315,0.055191,0.051868,0,0,0
347.1,0.31067,11.377,0.056881,0.053471,0,0,0
350.6,0.32146,11.436,0.059755,0.055227,0,0,0
354.1,0.33,11.494,0.060752,0.05698,0,0,0
357.6,0.33997,11.55,0.063086,0.058667,0,0,0
361.1,0.34788,11.605,0.064763,0.060507,0,0,0
364.6,0.35924,11.66,0.06622,0.062002,0,0,0
368.1,0.36804,11.716,0.068541,0.063867,0,0,0
371.6,0.37887,11.768,0.069468,0.065791,0,0,0
375.1,0.38715,11.82,0.071997,0.067156,0,0,0
378.6,0.39794,11.871,0.074089,0.069227,0,0,0
382.1,0.40701,11.922,0.075043,0.070924,0,0,0
385.6,0.41863,11.972,0.077496,0.072374,0,0,0
389.1,0.42744,12.021,0.078629,0.074404,0,0,0
392.6,0.43816,12.069,0.080463,0.07591,0,0,0
396.1,0.44707,12.116,0.083087,0.077964,0,0,0
399.6,0.45862,12.162,0.084731,0.080075,0,0,0
403.1,0.46829,12.207,0.087313,0.08142,0,0,0
406.6,0.47984,12.251,0.08892,0.083676,0,0,0
410.1,0.48901,12.297,0.091854,0.085745,0,0,0
413.6,0.50004,12.34,0.093996,0.087263,0,0,0
417.1,0.50947,12.384,0.095622,0.089142,0,0,0
420.6,0.52153,12.425,0.098356,0.091049,0,0,0
424.1,0.53156,12.467,0.10051,0.092892,0,0,0
427.6,0.54318,12.508,0.10276,0.09482,0,0,0
431.1,0.55238,12.55,0.10517,0.096837,0,0,0
434.6,0.56423,12.59,0.1074,0.098668,0,0,0
438.1,0.57463,12.628,0.1094,0.10086,0,0,0
441.6,0.58654,12.666,0.11192,0.10316,0,0,0
445.1,0.59694,12.706,0.1136,0.10483,0,0,0
448.6,0.60836,12.744,0.11623,0.10724,0,0,0
452.1,0.61843,12.782,0.11776,0.10896,0,0,0
455.6,0.63054,12.819,0.12061,0.11119,0,0,0
459.1,0.64163,12.857,0.12275,0.11385,0,0,0
462.6,0.65418,12.894,0.12518,0.11547,0,0,0
466.1,0.66527,12.93,0.12769,0.11813,0,0,0
469.6,0.67656,12.966,0.1301,0.12077,0,0,0
473.1,0.68812,13.002,0.13277,0.12294,0,0,0
476.6,0.69997,13.037,0.13466,0.12595,0,0,0
480.1,0.71255,13.072,0.13769,0.12837,0,0,0
483.6,0.72453,13.106,0.14011,0.13055,0,0,0
487.1,0.73698,13.141,0.14255,0.13302,0,0,0
490.6,0.74814,13.175,0.14568,0.13531,0,0,0
494.1,0.76121,13.208,0.14825,0.13828,0,0,0
497.6,0.77307,13.241,0.1515,0.14027,0,0,0
501.1,0.78644,13.273,0.15385,0.14355,0,0,0
504.6,0.79839,13.305,0.15686,0.14618,0,0,0
508.1,0.81193,13.335,0.15952,0.1489,0,0,0
511.6,0.82349,13.367,0.16228,0.15149,0,0,0
515.1,0.83617,13.397,0.16526,0.1539,0,0,0
518.6,0.84858,13.427,0.16817,0.15683,0,0,0
522.1,0.86189,13.458,0.17166,0.15974,0,0,0
525.6,0.8749,13.487,0.17425,0.1621,0,0,0
529.1,0.88775,13.517,0.1775,0.16534,0,0,0
532.6,0.90142,13.546,0.18043,0.16859,0,0,0
536.1,0.91373,13.575,0.18364,0.17049,0,0,0
539.6,0.92737,13.603,0.18672,0.17408,0,0,0
543.1,0.94015,13.631,0.18935,0.17672,0,0,0
546.6,0.95455,13.659,0.19274,0.17952,0,0,0
550.1,0.96799,13.685,0.19601,0.18344,0,0,0
553.6,0.98186,13.712,0.1999,0.18633,0,0,0
557.1,0.99511,13.739,0.20285,0.18935,0,0,0
560.6,1.0082,13.763,0.20614,0.19326,0,0,0
564.1,1.0227,13.79,0.2102,0.19609,0,0,0
567.6,1.036,13.816,0.2136,0.19957,0,0,0
571.1,1.0508,13.841,0.21779,0.2036,0,0,0
574.6,1.0645,13.865,0.22048,0.20654,0,0,0
578.1,1.0795,13.889,0.22493,0.20985,0,0,0
581.6,1.0928,13.913,0.22797,0.2136,0,0,0
585.1,1.1073,13.936,0.23267,0.21707,0,0,0
588.6,1.1212,13.958,0.23623,0.22034,0,0,0
592.1,1.1353,13.98,0.24001,0.22446,0,0,0
595.6,1.1499,14.001,0.24428,0.22786,0,0,0
599.1,1.1641,14.023,0.24855,0.23134,0,0,0
602.6,1.1795,14.045,0.25298,0.23572,0,0,0
606.1,1.1938,14.066,0.25685,0.23942,0,0,0
609.6,1.209,14.087,0.26153,0.24381,0,0,0
613.1,1.2234,14.107,0.26476,0.24796,0,0,0
616.6,1.2383,14.127,0.27005,0.25111,0,0,0
620.1,1.2539,14.145,0.27474,0.25614,0,0,0
623.6,1.2684,14.164,0.27991,0.26036,0,0,0
627.1,1.2844,14.183,0.28398,0.26527,0,0,0
630.6,1.2992,14.2,0.2887,0.26911,0,0,0
634.1,1.3152,14.218,0.29378,0.27403,0,0,0
637.6,1.3307,14.236,0.30047,0.27877,0,0,0
641.1,1.346,14.253,0.30506,0.28439,0,0,0
644.6,1.3622,14.269,0.3103,0.28804,0,0,0
648.1,1.3777,14.286,0.31628,0.29314,0,0,0
651.6,1.3943,14.302,0.32198,0.29822,0,0,0
655.1,1.4106,14.317,0.327,0.30415,0,0,0
658.6,1.4273,14.332,0.3322,0.30809,0,0,0
662.1,1.4445,14.346,0.33878,0.31372,0,0,0
665.6,1.4609,14.359,0.34384,0.31884,0,0,0
669.1,1.4783,14.373,0.35041,0.3251,0,0,0
672.6,1.4952,14.386,0.35597,0.32995,0,0,0
676.1,1.5123,14.398,0.3626,0.33612,0,0,0
679.6,1.5304,14.41,0.36946,0.34228,0,0,0
683.1,1.5482,14.421,0.37676,0.34891,0,0,0
686.6,1.5664,14.432,0.38337,0.35503,0,0,0
690.1,1.5851,14.44,0.39005,0.36119,0,0,0
693.6,1.603,14.448,0.39719,0.36721,0,0,0
697.1,1.6225,14.456,0.40436,0.37307,0,0,0
700.6,1.641,14.463,0.41153,0.38006,0,0,0
704.1,1.6608,14.468,0.41927,0.38825,0,0,0
707.6,1.6802,14.472,0.42794,0.39547,0,0,0
711.1,1.6997,14.475,0.43527,0.40227,0,0,0
714.6,1.7196,14.477,0.44459,0.4104,0,0,0
718.1,1.7407,14.478,0.45391,0.41786,0,0,0
721.6,1.7618,14.477,0.46328,-Inf,0,0,0
725.1,1.783,14.473,0.47461,-Inf,0,0,0
728.6,1.8051,14.468,0.48345,-Inf,0,0,0
732.1,1.827,14.459,0.49358,-Inf,0,0,0
735.6,1.8498,14.447,-Inf,-Inf,0,0,0
739.1,1.8736,14.43,-Inf,-Inf,0,0,0
742.6,1.898,14.403,-Inf,-Inf,0,0,0
746.1,1.9223,14.364,-Inf,-Inf,0,0,0
749.1,1.9486,14.301,-Inf,-Inf,0,0,0