File: lab_data/DP600_results/DATA/CH_45_1.csv
Time[s],Displacement[mm],Force[kN],AxStrain_1,AxStrain_2,Thickness[mm],OuterWidth[mm],Diameter[mm]
0.64,0,-0.021846,0,0,1.5293,20,5.038
4.14,0.000436,0.11642,0.00022597,-1.7e-05,0,0,0
7.64,0.000562,0.25343,0.00026696,0.00010499,0,0,0
11.14,0.001091,0.38256,0.00023597,0.00016299,0,0,0
14.64,0.001258,0.51215,0.00010899,0.00023197,0,0,0
18.14,0.001427,0.64214,0.00016599,3.9999e-05,0,0,0
21.64,0.001824,0.78315,0.00020498,0.00013599,0,0,0
25.14,0.002629,0.92685,0.00013599,0.00035394,0,0,0
28.64,0.002648,1.072,0.00034394,3.5999e-05,0,0,0
32.14,0.00295,1.2134,0.00037693,0.00017898,0,0,0
35.64,0.004158,1.3586,0.00039692,0.00047689,0,0,0
39.14,0.003969,1.5033,0.0006288,0.00038393,0,0,0
42.64,0.004155,1.6463,0.00066478,0.00024797,0,0,0
46.14,0.005386,1.7881,0.00066178,0.00064579,0,0,0
49.64,0.005006,1.9324,0.00051986,0.00046689,0,0,0
53.14,0.005436,2.0737,0.00055585,0.00054585,0,0,0
56.64,0.006807,2.2139,0.00073473,0.00058283,0,0,0
60.14,0.006466,2.3537,0.00072474,0.00054585,0,0,0
63.64,0.006906,2.4947,0.00065578,0.00061581,0,0,0
67.14,0.008386,2.6366,0.00071175,0.00071474,0,0,0
70.64,0.007846,2.7804,0.00078769,0.00056584,0,0,0
74.14,0.008442,2.92,0.00080068,0.0007747,0,0,0
77.64,0.010127,3.058,0.0010195,0.0011543,0,0,0
81.14,0.009283,3.1966,0.00091358,0.00066878,0,0,0
84.64,0.01015,3.3371,0.0010195,0.0010125,0,0,0
88.14,0.011776,3.4757,0.0012213,0.00092957,0,0,0
91.64,0.010468,3.6129,0.0012043,0.00087362,0,0,0
95.14,0.011577,3.7494,0.0012672,0.0012073,0,0,0
98.64,0.01311,3.8866,0.0013401,0.0010554,0,0,0
102.14,0.012034,4.0226,0.001413,0.00084065,0,0,0
105.64,0.013795,4.16,0.0011154,0.0012772,0,0,0
109.14,0.014692,4.2956,0.0015548,0.0011583,0,0,0
112.64,0.013739,4.4334,0.0014559,0.0012902,0,0,0
116.14,0.015858,4.5684,0.001389,0.001423,0,0,0
119.64,0.016421,4.7036,0.0016536,0.0015548,0,0,0
123.14,0.015593,4.8353,0.0015218,0.001423,0,0,0
126.64,0.017811,4.9691,0.0015548,0.0017195,0,0,0
130.14,0.018308,5.1046,0.0018523,0.0018523,0,0,0
133.64,0.017215,5.2391,0.0018523,0.0017535,0,0,0
137.14,0.019599,5.3716,0.002017,0.0019511,0,0,0
140.64,0.019963,5.5037,0.0021168,0.0019182,0,0,0
144.14,0.019367,5.6366,0.0018852,0.0018852,0,0,0
147.64,0.021718,5.7719,0.0021826,0.0023143,0,0,0
151.14,0.021817,5.906,0.0020838,0.0023143,0,0,0
154.64,0.021652,6.0406,0.0021168,0.0021826,0,0,0
158.14,0.024002,6.1727,0.0023482,0.0029417,0,0,0
161.64,0.024168,6.3049,0.0025458,0.0029088,0,0,0
165.14,0.024631,6.4386,0.0025128,0.0026455,0,0,0
168.64,0.026584,6.5714,0.0029756,0.0035686,0,0,0
172.14,0.026949,6.7053,0.0029756,0.0032397,0,0,0
175.64,0.027677,6.8381,0.0029756,0.003173,0,0,0
179.14,0.029465,6.969,0.0036683,0.0042948,0,0,0
182.64,0.030193,7.1001,0.0036025,0.0037669,0,0,0
186.14,0.03165,7.2317,0.0036683,0.0037998,0,0,0
189.64,0.032775,7.363,0.00446,0.0049537,0,0,0
193.14,0.034166,7.4911,0.003998,0.0043276,0,0,0
196.64,0.03559,7.6201,0.0040309,0.0049865,0,0,0
200.14,0.036815,7.7459,0.0051517,0.0059413,0,0,0
203.64,0.039,7.8714,0.0047567,0.0053158,0,0,0
207.14,0.04059,7.9949,0.0052174,0.0061391,0,0,0
210.64,0.041814,8.1211,0.0063697,0.0072566,0,0,0
214.14,0.045688,8.2436,0.0059751,0.0065346,0,0,0
217.64,0.04688,8.3669,0.006633,0.0077499,0,0,0
221.14,0.04933,8.489,0.0076189,0.0089647,0,0,0
224.64,0.053766,8.6083,0.0070273,0.008111,0,0,0
228.14,0.055555,8.7244,0.0082429,0.0096859,0,0,0
231.64,0.059065,8.8406,0.0093591,0.010768,0,0,0
235.14,0.063236,8.9539,0.0090311,0.01044,0,0,0
238.64,0.066713,9.0664,0.010965,0.012535,0,0,0
242.14,0.070818,9.1741,0.011718,0.013254,0,0,0
245.64,0.074493,9.2791,0.011456,0.012993,0,0,0
249.14,0.08075,9.3849,0.013549,0.015375,0,0,0
252.64,0.084658,9.4899,0.014333,0.016125,0,0,0
256.14,0.089095,9.5939,0.014268,0.016321,0,0,0
259.64,0.095916,9.6956,0.016745,0.01863,0,0,0
263.14,0.10161,9.7926,0.017299,0.019475,0,0,0
266.64,0.1078,9.8907,0.017918,0.020352,0,0,0
270.14,0.1129,9.9859,0.020192,0.022652,0,0,0
273.64,0.12101,10.081,0.020971,0.023656,0,0,0
277.14,0.1275,10.173,0.022169,0.024949,0,0,0
280.64,0.13426,10.264,0.023949,0.026789,0,0,0
284.14,0.14072,10.353,0.025144,0.028304,0,0,0
287.64,0.1485,10.441,0.026726,0.029847,0,0,0
291.14,0.15677,10.527,0.028015,0.031518,0,0,0
294.64,0.16379,10.61,0.029336,0.033249,0,0,0
298.14,0.17201,10.692,0.031006,0.034721,0,0,0
301.64,0.17926,10.774,0.032386,0.036064,0,0,0
305.14,0.18909,10.854,0.034209,0.03798,0,0,0
308.64,0.19694,10.932,0.036031,0.039318,0,0,0
312.14,0.20578,11.007,0.037372,0.0411,0,0,0
315.64,0.21274,11.083,0.03922,0.043068,0,0,0
319.14,0.22284,11.156,0.040652,0.044715,0,0,0
322.64,0.23138,11.227,0.0424,0.046455,0,0,0
326.14,0.24089,11.298,0.043764,0.04816,0,0,0
329.64,0.24834,11.367,0.045474,0.049862,0,0,0
333.14,0.25817,11.434,0.047781,0.051971,0,0,0
336.64,0.26718,11.5,0.048916,0.053763,0,0,0
340.14,0.27791,11.565,0.050994,0.056051,0,0,0
343.64,0.28606,11.631,0.052785,0.057742,0,0,0
347.14,0.29576,11.693,0.053852,0.059836,0,0,0
350.64,0.30487,11.754,0.055734,0.06214,0,0,0
354.14,0.31563,11.813,0.057861,0.064162,0,0,0
357.64,0.32514,11.873,0.059299,0.066055,0,0,0
361.14,0.33461,11.932,0.061295,0.068287,0,0,0
364.64,0.34342,11.989,0.062882,0.07017,0,0,0
368.14,0.35408,12.044,0.06518,0.072455,0,0,0
371.64,0.36425,12.099,0.067043,0.074607,0,0,0
375.14,0.37531,12.153,0.068653,0.076816,0,0,0
378.64,0.38432,12.208,0.071091,0.079206,0,0,0
382.14,0.39486,12.26,0.072971,0.081224,0,0,0
385.64,0.40449,12.311,0.07506,0.08348,0,0,0
389.14,0.41631,12.361,0.077393,0.08561,0,0,0
392.64,0.42618,12.412,0.078925,0.087707,0,0,0
396.14,0.43721,12.46,0.080943,0.090252,0,0,0
399.64,0.44665,12.509,0.083353,0.092639,0,0,0
403.14,0.45844,12.556,0.085303,0.095202,0,0,0
406.64,0.46864,12.603,0.087396,0.097851,0,0,0
410.14,0.48109,12.65,0.089247,0.099834,0,0,0
413.64,0.49103,12.696,0.091606,0.10256,0,0,0
417.14,0.50245,12.74,0.093931,0.10525,0,0,0
420.64,0.51269,12.785,0.096013,0.10739,0,0,0
424.14,0.52504,12.828,0.098713,0.11015,0,0,0
427.64,0.5359,12.87,0.10084,0.1127,0,0,0
431.14,0.54816,12.911,0.10341,0.11566,0,0,0
434.64,0.55836,12.953,0.10562,0.11825,0,0,0
438.14,0.57005,12.994,0.10826,0.12122,0,0,0
441.64,0.58091,13.035,0.11022,0.12409,0,0,0
445.14,0.59353,13.075,0.11242,0.1271,0,0,0
448.64,0.60525,13.114,0.11501,0.13028,0,0,0
452.14,0.61714,13.152,0.1172,0.13309,0,0,0
455.64,0.6286,13.192,0.12011,0.13555,0,0,0
459.14,0.64006,13.229,0.12245,0.13873,0,0,0
462.64,0.65244,13.266,0.12439,0.1415,0,0,0
466.14,0.66453,13.302,0.12792,0.14448,0,0,0
469.64,0.67754,13.339,0.12984,0.14858,0,0,0
473.14,0.68917,13.374,0.13248,0.15185,0,0,0
476.64,0.70185,13.41,0.1357,0.15484,0,0,0
480.14,0.71281,13.445,0.13783,0.15822,0,0,0
483.64,0.72616,13.479,0.13996,0.16096,0,0,0
487.14,0.73825,13.513,0.14338,0.16532,0,0,0
490.64,0.75222,13.547,0.1467,0.16928,0,0,0
494.14,0.76457,13.58,0.14956,0.17173,0,0,0
497.64,0.77755,13.612,0.15303,0.17485,0,0,0
501.14,0.78934,13.644,0.15655,0.17805,0,0,0
504.64,0.80242,13.676,0.15853,0.18082,0,0,0
508.14,0.8155,13.706,0.1618,0.18396,0,0,0
511.64,0.82861,13.737,0.16453,0.18715,0,0,0
515.14,0.84219,13.768,0.16739,0.19042,0,0,0
518.64,0.85484,13.798,0.17074,0.19394,0,0,0
522.14,0.86845,13.827,0.17406,0.19737,0,0,0
525.64,0.8809,13.857,0.17775,0.20049,0,0,0
529.14,0.89517,13.886,0.1809,0.20436,0,0,0
532.64,0.90825,13.916,0.18477,0.20762,0,0,0
536.14,0.92275,13.943,0.18815,0.21021,0,0,0
539.64,0.93653,13.972,0.19149,0.2143,0,0,0
543.14,0.9502,13.998,0.19474,0.21959,0,0,0
546.64,0.96415,14.025,0.19738,0.22317,0,0,0
550.14,0.97736,14.052,0.20069,0.22752,0,0,0
553.64,0.99212,14.077,0.20337,0.23144,0,0,0
557.14,1.0056,14.103,0.20774,0.2348,0,0,0
560.64,1.0207,14.129,0.2116,0.23846,0,0,0
564.14,1.0349,14.154,0.21554,0.24234,0,0,0
567.64,1.0494,14.178,0.21924,0.24469,0,0,0
571.14,1.064,14.202,0.22285,0.25032,0,0,0
574.64,1.0778,14.226,0.22668,0.25511,0,0,0
578.14,1.0929,14.249,0.22943,0.25904,0,0,0
581.64,1.1068,14.272,0.23395,-Inf,0,0,0
585.14,1.1224,14.295,0.23751,-Inf,0,0,0
588.64,1.1374,14.317,0.24102,-Inf,0,0,0
592.14,1.1523,14.339,0.24469,-Inf,0,0,0
595.64,1.1679,14.362,0.24886,-Inf,0,0,0
599.14,1.1827,14.383,0.25272,-Inf,0,0,0
602.64,1.1988,14.403,0.256,-Inf,0,0,0
606.14,1.2132,14.423,0.26027,-Inf,0,0,0
609.64,1.2296,14.443,0.26483,-Inf,0,0,0
613.14,1.2453,14.462,0.26914,-Inf,0,0,0
616.64,1.2612,14.481,0.27252,-Inf,0,0,0
620.14,1.2781,14.5,0.27805,-Inf,0,0,0
623.64,1.2936,14.517,0.2821,-Inf,0,0,0
627.14,1.3104,14.535,0.28716,-Inf,0,0,0
630.64,1.3264,14.553,0.29119,-Inf,0,0,0
634.14,1.3423,14.568,0.29677,-Inf,0,0,0
637.64,1.3594,14.585,0.30065,-Inf,0,0,0
641.14,1.3757,14.601,0.30686,-Inf,0,0,0
644.64,1.3933,14.617,0.31256,-Inf,0,0,0
648.14,1.4103,14.631,0.3194,-Inf,0,0,0
651.64,1.4276,14.645,0.32446,-Inf,0,0,0
655.14,1.4461,14.658,-Inf,-Inf,0,0,0
658.64,1.4633,14.67,-Inf,-Inf,0,0,0
662.14,1.4815,14.682,-Inf,-Inf,0,0,0
665.64,1.4997,14.693,-Inf,-Inf,0,0,0
669.14,1.5175,14.703,-Inf,-Inf,0,0,0
672.64,1.5366,14.713,-Inf,-Inf,0,0,0
676.14,1.555,14.721,-Inf,-Inf,0,0,0
679.64,1.5739,14.729,-Inf,-Inf,0,0,0
683.14,1.5941,14.734,-Inf,-Inf,0,0,0
686.64,1.6132,14.739,-Inf,-Inf,0,0,0
690.14,1.6329,14.743,-Inf,-Inf,0,0,0
693.64,1.6535,14.744,-Inf,-Inf,0,0,0
697.14,1.6736,14.744,-Inf,-Inf,0,0,0
700.64,1.6947,14.742,-Inf,-Inf,0,0,0
704.14,1.7163,14.737,-Inf,-Inf,0,0,0
707.64,1.7378,14.728,-Inf,-Inf,0,0,0
711.14,1.761,14.712,-Inf,-Inf,0,0,0
714.64,1.7852,14.684,-Inf,-Inf,0,0,0
718.14,1.811,14.636,-Inf,-Inf,0,0,0
719.14,1.8209,14.605,-Inf,-Inf,0,0,0