File: LAB_DATA/DP600_results/DATA/CH_45_2.csv
Time[s],Displacement[mm],Force[kN],AxStrain_1,AxStrain_2,Thickness[mm],OuterWidth[mm],Diameter[mm]
0.59,0,-0.017095,0,0,1.5263,20,4.8913
4.09,0.000335,0.11172,0.00019298,-0.00025703,0,0,0
7.59,0.000461,0.26757,0.00051687,-5e-06,0,0,0
11.09,0.000552,0.39415,0.00029496,0.0004389,0,0,0
14.59,0.000738,0.52128,0.00049688,0.00012299,0,0,0
18.09,0.00099,0.65372,0.00036393,-0.00041409,0,0,0
21.59,0.001241,0.79228,0.00048288,0.00068876,0,0,0
25.09,0.002066,0.93615,0.00030095,0.00081467,0,0,0
28.59,0.00241,1.0804,0.00034094,-0.00011501,0,0,0
32.09,0.002486,1.2269,0.00032795,0.00042791,0,0,0
35.59,0.003347,1.3736,0.00047988,0.0010794,0,0,0
39.09,0.003397,1.52,0.00038093,-0.00010501,0,0,0
42.59,0.003751,1.6646,0.00026796,0.00051387,0,0,0
46.09,0.004727,1.8097,0.00047289,0.0012572,0,0,0
49.59,0.004797,1.9536,0.0006258,8.2997e-05,0,0,0
53.09,0.004694,2.0984,0.0004539,0.00082766,0,0,0
56.59,0.006085,2.2431,0.00058583,0.0010295,0,0,0
60.09,0.006025,2.3876,0.0007777,5.9998e-05,0,0,0
63.59,0.006128,2.5294,0.00065479,0.00069476,0,0,0
67.09,0.007561,2.6726,0.00066878,0.00099251,0,0,0
70.59,0.007171,2.8166,0.00085364,0.00024797,0,0,0
74.09,0.007306,2.9604,0.00093956,0.0006388,0,0,0
77.59,0.009236,3.1007,0.00081067,0.0010654,0,0,0
81.09,0.008594,3.2424,0.00091658,0.00042391,0,0,0
84.59,0.008717,3.381,0.00092657,0.00098951,0,0,0
88.09,0.010753,3.5204,0.0011913,0.0012942,0,0,0
91.59,0.010296,3.6593,0.00092957,0.00035494,0,0,0
95.09,0.010527,3.7986,0.00085364,0.0011653,0,0,0
98.59,0.012636,3.9369,0.0011184,0.0015558,0,0,0
102.09,0.011686,4.075,0.0011643,0.00060981,0,0,0
105.59,0.012246,4.2119,0.0010325,0.0012772,0,0,0
109.09,0.014205,4.35,0.0014919,0.0017135,0,0,0
112.59,0.013275,4.4856,0.0012243,0.00082766,0,0,0
116.09,0.014136,4.6241,0.001423,0.0013571,0,0,0
119.59,0.016155,4.7597,0.0018523,0.0015548,0,0,0
123.09,0.015096,4.8936,0.0015218,0.0011254,0,0,0
126.59,0.015924,5.0274,0.0016207,0.001423,0,0,0
130.09,0.017711,5.162,0.001984,0.0015218,0,0,0
133.59,0.016553,5.2969,0.0018523,0.0010914,0,0,0
137.09,0.018009,5.4334,0.0017535,0.001423,0,0,0
140.59,0.019499,5.5666,0.0022155,0.0019182,0,0,0
144.09,0.018737,5.7011,0.0017195,0.00092657,0,0,0
147.59,0.020327,5.8336,0.0018193,0.0021168,0,0,0
151.09,0.021882,5.9714,0.0022814,0.0022165,0,0,0
154.59,0.021253,6.1067,0.0020509,0.0014889,0,0,0
158.09,0.02314,6.2427,0.0024141,0.0026126,0,0,0
161.59,0.024398,6.3747,0.0028759,0.0026784,0,0,0
165.09,0.024167,6.5073,0.0025458,0.0018523,0,0,0
168.59,0.026021,6.6409,0.0029746,0.0027771,0,0,0
172.09,0.026815,6.7761,0.0034042,0.00281,0,0,0
175.59,0.027014,6.9076,0.0028759,0.0021168,0,0,0
179.09,0.029033,7.0401,0.0033713,0.0033384,0,0,0
182.59,0.030126,7.1714,0.0038655,0.00347,0,0,0
186.09,0.031384,7.3016,0.0035686,0.0029098,0,0,0
189.59,0.032907,7.429,0.0042948,0.0043933,0,0,0
193.09,0.034032,7.5573,0.00469,0.0040966,0,0,0
196.59,0.03582,7.6839,0.0040966,0.0035357,0,0,0
200.09,0.037111,7.8111,0.0050194,0.0050522,0,0,0
203.59,0.039031,7.9336,0.0055794,0.0049865,0,0,0
207.09,0.04201,8.0554,0.0050522,0.0047228,0,0,0
210.59,0.042739,8.1756,0.0066975,0.0066975,0,0,0
214.09,0.045851,8.2984,0.0065992,0.0062047,0,0,0
217.59,0.04883,8.4206,0.0063697,0.0057763,0,0,0
221.09,0.049757,8.5404,0.0084393,0.0082102,0,0,0
224.59,0.054226,8.656,0.0083074,0.0079801,0,0,0
228.09,0.05757,8.771,0.0081437,0.0078154,0,0,0
231.59,0.059887,8.8844,0.010472,0.010341,0,0,0
235.09,0.064257,8.9961,0.010014,0.010046,0,0,0
238.59,0.067931,9.106,0.010866,0.010145,0,0,0
242.09,0.073394,9.2137,0.013285,0.013254,0,0,0
245.59,0.076539,9.318,0.012469,0.012992,0,0,0
249.09,0.081438,9.424,0.013841,0.013025,0,0,0
252.59,0.087794,9.5291,0.016677,0.015896,0,0,0
256.09,0.092032,9.6339,0.016026,0.015929,0,0,0
259.59,0.098156,9.7339,0.017426,0.016157,0,0,0
263.09,0.10378,9.8339,0.019765,0.019182,0,0,0
266.59,0.1112,9.9313,0.020057,0.019604,0,0,0
270.09,0.11676,10.026,0.021938,0.019799,0,0,0
273.59,0.12265,10.118,0.023782,0.022618,0,0,0
277.09,0.1304,10.209,0.024364,0.02333,0,0,0
280.59,0.13732,10.299,0.026204,0.024203,0,0,0
284.09,0.14563,10.387,0.02788,0.026236,0,0,0
287.59,0.15132,10.473,0.029552,0.027654,0,0,0
291.09,0.15973,10.557,0.030934,0.028749,0,0,0
294.59,0.16735,10.639,0.032569,0.030613,0,0,0
298.09,0.17628,10.723,0.034042,0.032505,0,0,0
301.59,0.183,10.803,0.035704,0.033273,0,0,0
305.09,0.19161,10.881,0.037588,0.035033,0,0,0
308.59,0.20002,10.957,0.039339,0.037461,0,0,0
312.09,0.20922,11.032,0.041248,0.038353,0,0,0
315.59,0.21803,11.104,0.042929,0.039913,0,0,0
319.09,0.22554,11.177,0.044324,0.042487,0,0,0
322.59,0.23461,11.246,0.046601,0.043058,0,0,0
326.09,0.24342,11.316,0.048243,0.045243,0,0,0
329.59,0.25332,11.384,0.049882,0.047487,0,0,0
333.09,0.26173,11.452,0.052524,0.048371,0,0,0
336.59,0.27097,11.517,0.054408,0.05067,0,0,0
340.09,0.27977,11.582,0.055879,0.052871,0,0,0
343.59,0.29069,11.646,0.058226,0.054189,0,0,0
347.09,0.30013,11.707,0.060034,0.056006,0,0,0
350.59,0.3099,11.767,0.061935,0.058008,0,0,0
354.09,0.31844,11.828,0.064297,0.05985,0,0,0
357.59,0.3289,11.886,0.066777,0.061532,0,0,0
361.09,0.33843,11.944,0.068572,0.063988,0,0,0
364.59,0.34946,12,0.070827,0.06619,0,0,0
368.09,0.35816,12.057,0.073168,0.066903,0,0,0
371.59,0.36882,12.11,0.07492,0.069624,0,0,0
375.09,0.37813,12.164,0.076761,0.071907,0,0,0
378.59,0.38978,12.216,0.078874,0.0732,0,0,0
382.09,0.39961,12.269,0.0808,0.075413,0,0,0
385.59,0.4105,12.319,0.083392,0.078081,0,0,0
389.09,0.41947,12.369,0.085857,0.079703,0,0,0
392.59,0.43089,12.418,0.088254,0.081442,0,0,0
396.09,0.44116,12.466,0.090857,0.08446,0,0,0
399.59,0.45291,12.515,0.093575,0.086253,0,0,0
403.09,0.46311,12.562,0.095773,0.08783,0,0,0
406.59,0.47406,12.608,0.098026,0.090767,0,0,0
410.09,0.48439,12.654,0.10039,0.092791,0,0,0
413.59,0.49634,12.698,0.10297,0.09454,0,0,0
417.09,0.5075,12.743,0.10547,0.097277,0,0,0
420.59,0.51922,12.787,0.10791,0.099647,0,0,0
424.09,0.53021,12.83,0.11053,0.10121,0,0,0
427.59,0.54114,12.871,0.1134,0.10443,0,0,0
431.09,0.55256,12.913,0.11602,0.1069,0,0,0
434.59,0.56414,12.953,0.11826,0.10875,0,0,0
438.09,0.57619,12.994,0.12131,0.11156,0,0,0
441.59,0.58745,13.033,0.12331,0.11426,0,0,0
445.09,0.59933,13.074,0.12573,0.11597,0,0,0
448.59,0.60999,13.112,0.12833,0.11871,0,0,0
452.09,0.62287,13.15,0.13042,0.12141,0,0,0
455.59,0.63446,13.188,0.13243,0.12416,0,0,0
459.09,0.6475,13.225,0.13422,0.12693,0,0,0
462.59,0.65866,13.262,0.13798,0.12941,0,0,0
466.09,0.67127,13.298,0.14034,0.13252,0,0,0
469.59,0.68213,13.334,0.14313,0.1342,0,0,0
473.09,0.6954,13.368,0.14591,0.13735,0,0,0
476.58,0.70709,13.403,0.14791,0.14026,0,0,0
480.08,0.7206,13.438,0.15082,0.14233,0,0,0
483.58,0.73268,13.472,0.15307,0.14574,0,0,0
487.08,0.74536,13.506,0.15582,0.14908,0,0,0
490.58,0.75764,13.538,0.15868,0.15159,0,0,0
494.08,0.76986,13.569,0.16135,0.15398,0,0,0
497.58,0.78313,13.602,0.16386,0.15802,0,0,0
501.08,0.79585,13.632,0.16812,0.16118,0,0,0
504.58,0.80965,13.663,0.17052,0.16293,0,0,0
508.09,0.82173,13.692,0.17365,0.16633,0,0,0
511.58,0.83514,13.723,0.17745,0.17055,0,0,0
515.09,0.84703,13.753,0.1803,0.17359,0,0,0
518.59,0.86129,13.782,0.18364,0.17612,0,0,0
522.09,0.87394,13.812,0.1873,0.17991,0,0,0
525.59,0.88831,13.84,0.19013,0.18369,0,0,0
529.09,0.90152,13.87,0.19431,0.18686,0,0,0
532.59,0.91499,13.897,0.19717,0.18916,0,0,0
536.09,0.92866,13.924,0.20078,0.19389,0,0,0
539.59,0.94161,13.951,0.20435,0.19678,0,0,0
543.09,0.9564,13.978,0.20825,0.20038,0,0,0
546.59,0.96998,14.005,0.21196,0.20444,0,0,0
550.09,0.98461,14.03,0.21709,0.20805,0,0,0
553.59,0.99818,14.055,0.22084,0.21181,0,0,0
557.09,1.0126,14.081,0.22424,0.21595,0,0,0
560.59,1.0268,14.105,0.22857,0.2209,0,0,0
564.09,1.0406,14.129,0.2328,0.22458,0,0,0
567.59,1.0556,14.153,0.23663,0.22857,0,0,0
571.09,1.0693,14.176,0.24044,0.23332,0,0,0
574.59,1.0851,14.2,0.24584,0.23727,0,0,0
578.09,1.0991,14.221,-Inf,0.24188,0,0,0
581.59,1.1145,14.244,-Inf,0.2464,0,0,0
585.09,1.129,14.266,-Inf,0.25148,0,0,0
588.58,1.1441,14.288,-Inf,0.25628,0,0,0
592.09,1.159,14.309,-Inf,0.26145,0,0,0
595.58,1.1738,14.33,-Inf,0.26671,0,0,0
599.08,1.1903,14.351,-Inf,0.27144,0,0,0
602.58,1.2056,14.37,-Inf,0.27688,0,0,0
606.09,1.2216,14.39,-Inf,0.28154,0,0,0
609.58,1.2379,14.408,-Inf,0.28698,0,0,0
613.09,1.2531,14.426,-Inf,0.29334,0,0,0
616.58,1.2695,14.444,-Inf,0.29943,0,0,0
620.09,1.285,14.462,-Inf,-Inf,0,0,0
623.58,1.3015,14.479,-Inf,-Inf,0,0,0
627.08,1.3181,14.494,-Inf,-Inf,0,0,0
630.58,1.3343,14.511,-Inf,-Inf,0,0,0
634.09,1.3516,14.526,-Inf,-Inf,0,0,0
637.58,1.3686,14.541,-Inf,-Inf,0,0,0
641.08,1.3861,14.555,-Inf,-Inf,0,0,0
644.58,1.404,14.569,-Inf,-Inf,0,0,0
648.08,1.4203,14.581,-Inf,-Inf,0,0,0
651.58,1.4387,14.593,-Inf,-Inf,0,0,0
655.08,1.4561,14.604,-Inf,-Inf,0,0,0
658.58,1.4743,14.614,-Inf,-Inf,0,0,0
662.08,1.4931,14.623,-Inf,-Inf,0,0,0
665.58,1.5113,14.631,-Inf,-Inf,0,0,0
669.08,1.5305,14.638,-Inf,-Inf,0,0,0
672.58,1.55,14.642,-Inf,-Inf,0,0,0
676.08,1.5694,14.646,-Inf,-Inf,0,0,0
679.58,1.5904,14.648,-Inf,-Inf,0,0,0
683.08,1.6108,14.646,-Inf,-Inf,0,0,0
686.58,1.6317,14.643,-Inf,-Inf,0,0,0
690.08,1.6537,14.635,-Inf,-Inf,0,0,0
693.58,1.6761,14.621,-Inf,-Inf,0,0,0
697.08,1.6987,14.601,-Inf,-Inf,0,0,0
700.58,1.7231,14.568,-Inf,-Inf,0,0,0
704.08,1.7487,14.52,-Inf,-Inf,0,0,0
707.58,1.7776,14.424,-Inf,-Inf,0,0,0
710.08,1.8006,14.315,-Inf,-Inf,0,0,0