File: LAB_DATA/DP600_results/DATA/CH_90_2.csv
Time[s],Displacement[mm],Force[kN],AxStrain_1,AxStrain_2,Thickness[mm],OuterWidth[mm],Diameter[mm]
0.59,0,-0.018095,0,0,1.5296,20,4.8562
4.09,0.000925,0.11356,0.00052286,0.00015499,0,0,0
7.59,0.000983,0.27558,0.00057284,2.5e-05,0,0,0
11.09,0.000988,0.40214,0.00024197,8.4996e-05,0,0,0
14.59,0.001766,0.53215,0.00040692,4.6999e-05,0,0,0
18.09,0.001765,0.66685,0.00058883,7.5997e-05,0,0,0
21.59,0.002059,0.80686,0.00059882,7.5997e-05,0,0,0
25.09,0.00287,0.94757,0.00042691,0.00015199,0,0,0
28.59,0.003291,1.0909,0.00073773,0.00046689,0,0,0
32.09,0.003205,1.2359,0.00051986,0.00036093,0,0,0
35.59,0.004413,1.3831,0.00050987,0.00038393,0,0,0
39.09,0.00433,1.5263,0.00091958,0.00078469,0,0,0
42.59,0.004509,1.6721,0.00055585,0.00026796,0,0,0
46.09,0.005956,1.8143,0.00052586,0.0004369,0,0,0
49.59,0.005873,1.9564,0.0008996,0.00083365,0,0,0
53.09,0.005909,2.0997,0.00075771,0.00040392,0,0,0
56.59,0.007449,2.242,0.00086363,0.00069476,0,0,0
60.09,0.007217,2.3816,0.0011254,0.0006258,0,0,0
63.59,0.007277,2.5233,0.00084364,0.00068876,0,0,0
67.09,0.00914,2.6604,0.00098651,0.00079768,0,0,0
70.59,0.008697,2.7997,0.0012742,0.00091958,0,0,0
74.09,0.008799,2.9414,0.00093356,0.00076471,0,0,0
77.59,0.010941,3.0826,0.0010025,0.00097253,0,0,0
81.09,0.01022,3.2216,0.0011543,0.00085364,0,0,0
84.59,0.010269,3.3616,0.0011483,0.00098252,0,0,0
88.09,0.01258,3.501,0.0012472,0.0012572,0,0,0
91.59,0.011415,3.6376,0.001429,0.0011483,0,0,0
95.09,0.012077,3.7761,0.0012902,0.0011913,0,0,0
98.59,0.014457,3.9126,0.0014989,0.0016936,0,0,0
102.09,0.013123,4.0489,0.0019082,0.0014889,0,0,0
105.59,0.013904,4.1833,0.0015847,0.0013561,0,0,0
109.09,0.01598,4.3204,0.002011,0.0017265,0,0,0
112.59,0.014666,4.4576,0.0017864,0.0016866,0,0,0
116.09,0.01589,4.5927,0.0016866,0.0014889,0,0,0
119.59,0.017711,4.7261,0.0022485,0.001984,0,0,0
123.09,0.016519,4.8607,0.0018852,0.0019182,0,0,0
126.59,0.018042,4.9939,0.0018193,0.0016866,0,0,0
130.09,0.019698,5.1301,0.0022155,0.0021826,0,0,0
133.59,0.018539,5.2623,0.0020509,0.0019182,0,0,0
137.09,0.019863,5.3991,0.0019182,0.0019182,0,0,0
140.59,0.021585,5.5333,0.0024141,0.0026445,0,0,0
144.09,0.020558,5.6663,0.0023143,0.0022155,0,0,0
147.59,0.022379,5.8006,0.0021168,0.0025787,0,0,0
151.09,0.023538,5.9371,0.0025458,0.0027113,0,0,0
154.59,0.022909,6.0719,0.002447,0.002447,0,0,0
158.09,0.024895,6.2051,0.0027771,0.0029088,0,0,0
161.59,0.026087,6.3357,0.0034042,0.0035357,0,0,0
165.09,0.025855,6.4683,0.0032387,0.0029756,0,0,0
168.59,0.028106,6.6016,0.0030414,0.0034371,0,0,0
172.09,0.028901,6.7354,0.0036683,0.0037998,0,0,0
175.59,0.029397,6.8666,0.0033384,0.0035686,0,0,0
179.09,0.031152,6.9979,0.0037011,0.0039323,0,0,0
182.59,0.032046,7.1264,0.0040966,0.0045586,0,0,0
186.09,0.033403,7.2553,0.0037669,0.0040637,0,0,0
189.59,0.034661,7.3829,0.0047557,0.0048542,0,0,0
193.09,0.036184,7.5111,0.0052174,0.00548,0,0,0
196.59,0.038468,7.6346,0.0047557,0.0049537,0,0,0
200.09,0.039197,7.7599,0.0056122,0.0061391,0,0,0
203.59,0.04158,7.8806,0.0057107,0.0062375,0,0,0
207.09,0.044394,8.0021,0.0054471,0.0061053,0,0,0
210.59,0.044759,8.123,0.0066975,0.0078154,0,0,0
214.09,0.0484,8.2436,0.0067641,0.0074869,0,0,0
217.59,0.051379,8.3629,0.0068296,0.0077499,0,0,0
221.09,0.052538,8.4801,0.0086366,0.0096859,0,0,0
224.59,0.057239,8.5956,0.0083738,0.0096206,0,0,0
228.09,0.060186,8.7101,0.0085375,0.010113,0,0,0
231.59,0.063033,8.8214,0.010799,0.011913,0,0,0
235.09,0.067072,8.9339,0.010472,0.011717,0,0,0
238.59,0.071012,9.0423,0.010833,0.012404,0,0,0
242.09,0.076176,9.149,0.012894,0.014495,0,0,0
245.59,0.079156,9.252,0.012861,0.014626,0,0,0
249.09,0.084486,9.355,0.013678,0.015701,0,0,0
252.59,0.090048,9.4581,0.015603,0.017622,0,0,0
256.09,0.094121,9.5599,0.015668,0.017916,0,0,0
259.59,0.10001,9.6599,0.016547,0.019215,0,0,0
263.09,0.10558,9.7566,0.018531,0.021,0,0,0
266.59,0.11322,9.8507,0.018922,0.021811,0,0,0
270.09,0.11776,9.9473,0.020382,0.022977,0,0,0
273.59,0.12451,10.04,0.021712,0.024496,0,0,0
277.09,0.1311,10.131,0.022003,0.025982,0,0,0
280.59,0.13829,10.219,0.023394,0.026916,0,0,0
284.09,0.14511,10.306,0.024913,0.028463,0,0,0
287.59,0.15107,10.392,0.026075,0.029974,0,0,0
291.09,0.16014,10.475,0.02746,0.030937,0,0,0
294.59,0.16712,10.558,0.028845,0.03238,0,0,0
298.09,0.1756,10.637,0.029841,0.03395,0,0,0
301.59,0.18172,10.717,0.030966,0.035678,0,0,0
305.09,0.19076,10.796,0.032698,0.037434,0,0,0
308.59,0.19881,10.871,0.034042,0.038741,0,0,0
312.09,0.20781,10.944,0.035193,0.040334,0,0,0
315.59,0.21483,11.015,0.036917,0.041795,0,0,0
319.09,0.22314,11.088,0.03797,0.043127,0,0,0
322.59,0.23198,11.159,0.039594,0.045409,0,0,0
326.09,0.24122,11.227,0.041406,0.047116,0,0,0
329.59,0.24986,11.294,0.042454,0.048378,0,0,0
333.09,0.25761,11.361,0.044641,0.050774,0,0,0
336.59,0.26695,11.426,0.046096,0.052596,0,0,0
340.09,0.27619,11.493,0.047423,0.05401,0,0,0
343.59,0.28648,11.556,0.049567,0.056361,0,0,0
347.09,0.29479,11.62,0.050638,0.058018,0,0,0
350.59,0.30426,11.681,0.052399,0.059423,0,0,0
354.09,0.31337,11.741,0.054313,0.061854,0,0,0
357.59,0.32426,11.8,0.055942,0.063409,0,0,0
361.09,0.3337,11.858,0.057757,0.065179,0,0,0
364.59,0.34383,11.915,0.059785,0.067347,0,0,0
368.09,0.35211,11.972,0.061063,0.069327,0,0,0
371.59,0.36303,12.027,0.062899,0.071085,0,0,0
375.09,0.37297,12.08,0.064638,0.073273,0,0,0
378.59,0.38406,12.134,0.066312,0.075578,0,0,0
382.09,0.39307,12.187,0.068045,0.077664,0,0,0
385.59,0.4033,12.239,0.070209,0.079777,0,0,0
389.09,0.4131,12.29,0.071905,0.081549,0,0,0
392.59,0.42485,12.339,0.073658,0.084018,0,0,0
396.09,0.43502,12.389,0.076392,0.086512,0,0,0
399.59,0.44621,12.437,0.078139,0.088482,0,0,0
403.09,0.45542,12.486,0.080188,0.090545,0,0,0
406.59,0.46644,12.532,0.082203,0.092719,0,0,0
410.09,0.47734,12.579,0.083879,0.09489,0,0,0
413.59,0.48922,12.625,0.085855,0.097267,0,0,0
417.09,0.50005,12.67,0.08804,0.099636,0,0,0
420.59,0.51111,12.714,0.089645,0.1023,0,0,0
424.09,0.52141,12.758,0.092004,0.10445,0,0,0
427.59,0.53286,12.8,0.094055,0.1071,0,0,0
431.09,0.54452,12.842,0.096492,0.10927,0,0,0
434.59,0.55624,12.884,0.098835,0.11156,0,0,0
438.09,0.56779,12.926,0.10111,0.11434,0,0,0
441.59,0.57836,12.965,0.10311,0.1162,0,0,0
445.09,0.58998,13.005,0.10559,0.11929,0,0,0
448.59,0.6014,13.045,0.10782,0.12143,0,0,0
452.09,0.61389,13.085,0.10963,0.12339,0,0,0
455.59,0.62557,13.123,0.11203,0.12695,0,0,0
459.09,0.63812,13.161,0.11449,0.12838,0,0,0
462.59,0.64855,13.198,0.1167,0.13129,0,0,0
466.09,0.66127,13.235,0.11914,0.1337,0,0,0
469.59,0.67259,13.271,0.12146,0.13645,0,0,0
473.09,0.68613,13.307,0.12433,0.13899,0,0,0
476.59,0.69795,13.342,0.12643,0.14172,0,0,0
480.09,0.71116,13.377,0.12859,0.1449,0,0,0
483.59,0.72232,13.412,0.13141,0.14777,0,0,0
487.09,0.73481,13.445,0.13378,0.15093,0,0,0
490.59,0.74702,13.48,0.13656,0.15332,0,0,0
494.09,0.7604,13.513,0.1391,0.15689,0,0,0
497.59,0.77361,13.545,0.14183,0.15935,0,0,0
501.09,0.78649,13.577,0.1445,0.16166,0,0,0
504.59,0.79907,13.609,0.14725,0.16551,0,0,0
508.09,0.81109,13.64,0.1497,0.16859,0,0,0
511.59,0.82466,13.671,0.1528,0.1713,0,0,0
515.09,0.83685,13.701,0.15524,0.17484,0,0,0
518.59,0.85122,13.731,0.1581,0.17919,0,0,0
522.09,0.86403,13.761,0.16166,0.1819,0,0,0
525.59,0.87794,13.791,0.16422,0.18498,0,0,0
529.09,0.89052,13.82,0.16725,0.18839,0,0,0
532.59,0.9038,13.848,0.17007,0.19109,0,0,0
536.09,0.91734,13.877,0.17364,0.19495,0,0,0
539.59,0.93111,13.905,0.17681,0.19748,0,0,0
543.09,0.94598,13.933,0.1798,0.20184,0,0,0
546.59,0.95912,13.958,0.18385,0.20549,0,0,0
550.09,0.97392,13.985,0.18713,0.20842,0,0,0
553.59,0.98696,14.012,0.19014,0.21242,0,0,0
557.09,1.0013,14.037,0.19337,0.21506,0,0,0
560.59,1.0145,14.063,0.19704,0.21967,0,0,0
564.09,1.029,14.088,0.20038,0.22315,0,0,0
567.59,1.0438,14.113,0.20411,0.22722,0,0,0
571.09,1.0584,14.138,0.20721,0.23051,0,0,0
574.59,1.0735,14.161,0.21084,0.23523,0,0,0
578.09,1.0872,14.184,0.21464,0.23902,0,0,0
581.59,1.1022,14.207,0.21704,0.24368,0,0,0
585.09,1.1161,14.231,0.22137,0.24753,0,0,0
588.59,1.1312,14.252,0.22455,0.25207,0,0,0
592.09,1.1464,14.274,0.22857,0.25631,0,0,0
595.59,1.1612,14.296,0.23219,0.26068,0,0,0
599.09,1.1774,14.317,0.23665,0.26554,0,0,0
602.59,1.1922,14.339,0.241,0.26909,0,0,0
606.09,1.2082,14.359,0.24505,0.27331,0,0,0
609.59,1.2231,14.379,0.24859,0.27811,0,0,0
613.09,1.2385,14.399,0.25354,0.28277,0,0,0
616.59,1.2542,14.417,0.25825,0.28819,0,0,0
620.09,1.2699,14.437,0.26305,0.2932,0,0,0
623.59,1.2867,14.455,0.26691,0.29758,0,0,0
627.09,1.3024,14.472,0.27161,0.30309,0,0,0
630.59,1.3191,14.49,0.27645,0.3078,0,0,0
634.09,1.3359,14.507,0.28231,0.31339,0,0,0
637.59,1.3517,14.523,0.28763,0.31892,0,0,0
641.09,1.3692,14.54,0.29199,0.32408,0,0,0
644.59,1.3851,14.555,0.2983,0.32955,0,0,0
648.09,1.4024,14.571,0.3035,0.33565,0,0,0
651.59,1.4195,14.585,0.31029,0.3419,0,0,0
655.09,1.4364,14.598,0.31453,0.34761,0,0,0
658.59,1.4547,14.612,0.32106,0.35409,0,0,0
662.09,1.4721,14.624,0.32762,0.35921,0,0,0
665.59,1.4902,14.636,0.33409,0.36517,0,0,0
669.09,1.5089,14.647,0.33959,0.37129,0,0,0
672.59,1.5266,14.657,0.34594,0.37887,0,0,0
676.09,1.5457,14.667,0.35262,0.38783,0,0,0
679.59,1.5646,14.676,0.3598,0.3962,0,0,0
683.09,1.5833,14.684,0.36635,-Inf,0,0,0
686.59,1.6034,14.689,0.37262,-Inf,0,0,0
690.09,1.6226,14.693,0.37919,-Inf,0,0,0
693.59,1.6424,14.696,0.38689,-Inf,0,0,0
697.09,1.6632,14.697,0.39322,-Inf,0,0,0
700.59,1.6836,14.696,-Inf,-Inf,0,0,0
704.09,1.7043,14.692,-Inf,-Inf,0,0,0
707.59,1.7268,14.683,-Inf,-Inf,0,0,0
711.09,1.7492,14.666,-Inf,-Inf,0,0,0
714.59,1.7723,14.642,-Inf,-Inf,0,0,0
718.09,1.7976,14.603,-Inf,-Inf,0,0,0
721.59,1.8269,14.517,-Inf,-Inf,0,0,0
723.59,1.8456,14.431,-Inf,-Inf,0,0,0