File: LAB_DATA/DP600_results/DATA/NT6_90_1.csv
Time[s],Displacement[mm],Force[kN],AxStrain_1,AxStrain_2,Thickness[mm],OuterWidth[mm],InnerWidth[mm]
0.6,0,-0.020007,0,0,1.5202,20,10
3.1,0.000682,0.050564,-3.5001e-05,0,0,0,0
5.6,0.000827,0.17743,3.3999e-05,0,0,0,0
8.1,0.001282,0.26271,-4.8001e-05,0,0,0,0
10.6,0.001618,0.35743,0.00015199,0,0,0,0
13.1,0.002207,0.44756,5.3999e-05,0,0,0,0
15.6,0.002281,0.53943,-4.0001e-05,0,0,0,0
18.1,0.002542,0.62956,3.2999e-05,0,0,0,0
20.6,0.00285,0.72786,0.00015599,0,0,0,0
23.1,0.003622,0.82657,0.00030095,0,0,0,0
25.6,0.004519,0.92886,0.00018198,0,0,0,0
28.1,0.004307,1.029,0.00012599,0,0,0,0
30.6,0.004433,1.1304,6.2998e-05,0,0,0,0
33.1,0.005111,1.2343,0.00011299,0,0,0,0
35.6,0.006409,1.335,0.00039092,0,0,0,0
38.1,0.005966,1.438,0.00023197,0,0,0,0
40.6,0.006075,1.5394,0.00012599,0,0,0,0
43.1,0.006734,1.6426,0.00029096,0,0,0,0
45.6,0.008021,1.7434,0.00031095,0,0,0,0
48.1,0.008061,1.8426,0.00041092,0,0,0,0
50.6,0.007687,1.9451,0.00036393,0,0,0,0
53.1,0.008227,2.044,0.00015199,0,0,0,0
55.6,0.009617,2.1447,0.00037393,0,0,0,0
58.1,0.009981,2.2429,0.00017199,0,0,0,0
60.6,0.00961,2.343,0.00038693,0,0,0,0
63.1,0.009928,2.4396,0.00037093,0,0,0,0
65.6,0.010988,2.5383,0.0006288,0,0,0,0
68.1,0.012302,2.6377,0.00026496,0,0,0,0
70.6,0.011683,2.7397,0.00021798,0,0,0,0
73.1,0.011693,2.8404,0.00033095,0,0,0,0
75.59,0.012865,2.94,0.00052586,0,0,0,0
78.1,0.014477,3.0399,0.00034794,0,0,0,0
80.59,0.013815,3.1349,0.00056284,0,0,0,0
83.1,0.013431,3.2379,0.00018898,0,0,0,0
85.6,0.014821,3.3357,0.00034394,0,0,0,0
88.1,0.016612,3.4381,0.00042391,0,0,0,0
90.59,0.015963,3.535,0.00057284,0,0,0,0
93.09,0.015368,3.6334,0.00028796,0,0,0,0
95.59,0.016725,3.7317,0.0004399,0,0,0,0
98.09,0.018645,3.8286,0.00071774,0,0,0,0
100.59,0.018731,3.928,0.00069176,0,0,0,0
103.09,0.018066,4.0264,0.00064179,0,0,0,0
105.59,0.019191,4.1259,0.00059882,0,0,0,0
108.09,0.021065,4.2216,0.00085663,0,0,0,0
110.59,0.021518,4.3196,0.0008936,0,0,0,0
113.1,0.021088,4.4157,0.00066178,0,0,0,0
115.59,0.022015,4.5134,0.00079468,0,0,0,0
118.1,0.024001,4.6107,0.0010914,0,0,0,0
120.59,0.024664,4.7053,0.0010584,0,0,0,0
123.09,0.02463,4.8011,0.00086063,0,0,0,0
125.59,0.025259,4.8926,0.00099251,0,0,0,0
128.09,0.02718,4.9913,0.0010914,0,0,0,0
130.59,0.028338,5.0841,0.0010584,0,0,0,0
133.09,0.028736,5.1801,0.00086063,0,0,0,0
135.59,0.029596,5.2726,0.0011254,0,0,0,0
138.09,0.031186,5.3651,0.0011913,0,0,0,0
140.59,0.032775,5.4577,0.0013561,0,0,0,0
143.09,0.034,5.5499,0.0014559,0,0,0,0
145.59,0.035456,5.6446,0.0012243,0,0,0,0
148.09,0.036747,5.7359,0.0015548,0,0,0,0
150.59,0.03837,5.8273,0.001984,0,0,0,0
153.09,0.040687,5.9163,0.0018523,0,0,0,0
155.59,0.043567,6.0046,0.0019511,0,0,0,0
158.09,0.045421,6.0914,0.0023482,0,0,0,0
160.59,0.046977,6.178,0.00281,0,0,0,0
163.09,0.050718,6.2639,0.0029417,0,0,0,0
165.59,0.054426,6.3461,0.0027771,0,0,0,0
168.09,0.056942,6.4291,0.0030743,0,0,0,0
170.59,0.059359,6.5079,0.0040966,0,0,0,0
173.09,0.06363,6.5907,0.0041633,0,0,0,0
175.59,0.067238,6.667,0.0038994,0,0,0,0
178.09,0.071343,6.7464,0.00446,0,0,0,0
180.59,0.075945,6.8201,0.0054481,0,0,0,0
183.09,0.079852,6.8939,0.0056122,0,0,0,0
185.59,0.083593,6.9663,0.0054481,0,0,0,0
188.09,0.089155,7.0377,0.0060407,0,0,0,0
190.59,0.094585,7.1091,0.0073559,0,0,0,0
193.09,0.099451,7.1779,0.0077171,0,0,0,0
195.59,0.10495,7.2471,0.0072904,0,0,0,0
198.09,0.11051,7.313,0.0076844,0,0,0,0
200.59,0.11518,7.3779,0.0091619,0,0,0,0
203.09,0.12094,7.4413,0.009785,0,0,0,0
205.59,0.12772,7.506,0.0092273,0,0,0,0
208.09,0.13352,7.5696,0.0096216,0,0,0,0
210.59,0.13997,7.6294,0.011129,0,0,0,0
213.09,0.14653,7.6919,0.011946,0,0,0,0
215.59,0.15189,7.7501,0.011096,0,0,0,0
218.09,0.15908,7.8114,0.011685,0,0,0,0
220.59,0.16649,7.8693,0.013418,0,0,0,0
223.09,0.17315,7.9279,0.014005,0,0,0,0
225.59,0.18136,7.983,0.013451,0,0,0,0
228.09,0.18834,8.0386,0.013909,0,0,0,0
230.59,0.1951,8.0936,0.015605,0,0,0,0
233.09,0.20304,8.1471,0.016322,0,0,0,0
235.59,0.20973,8.2,0.015638,0,0,0,0
238.09,0.21725,8.2516,0.016355,0,0,0,0
240.59,0.22612,8.3031,0.017754,0,0,0,0
243.09,0.23406,8.3524,0.018632,0,0,0,0
245.59,0.24261,8.4007,0.018372,0,0,0,0
248.09,0.25125,8.449,0.018859,0,0,0,0
250.59,0.25863,8.4976,0.020386,0,0,0,0
253.09,0.26754,8.545,0.021423,0,0,0,0
255.59,0.27558,8.5911,0.021293,0,0,0,0
258.09,0.28416,8.6373,0.021617,0,0,0,0
260.59,0.29389,8.6814,0.023074,0,0,0,0
263.09,0.30246,8.7267,0.024045,0,0,0,0
265.59,0.3124,8.7701,0.024238,0,0,0,0
268.09,0.32196,8.8139,0.024691,0,0,0,0
270.59,0.33077,8.8556,0.026143,0,0,0,0
273.09,0.3408,8.897,0.027046,0,0,0,0
275.59,0.34934,8.9379,0.027336,0,0,0,0
278.09,0.35861,8.9781,0.028109,0,0,0,0
280.59,0.36881,9.018,0.02917,0,0,0,0
283.09,0.37801,9.0576,0.030071,0,0,0,0
285.59,0.38897,9.0957,0.030713,0,0,0,0
288.09,0.39881,9.1329,0.031387,0,0,0,0
290.59,0.40914,9.1701,0.032511,0,0,0,0
293.09,0.41973,9.2071,0.033503,0,0,0,0
295.59,0.42937,9.2436,0.034143,0,0,0,0
298.09,0.44023,9.2801,0.034944,0,0,0,0
300.59,0.44963,9.3144,0.035871,0,0,0,0
303.09,0.46016,9.3496,0.03702,0,0,0,0
305.59,0.47128,9.3824,0.037754,0,0,0,0
308.09,0.48161,9.4176,0.038742,0,0,0,0
310.59,0.49343,9.4494,0.039762,0,0,0,0
313.09,0.50383,9.4823,0.040812,0,0,0,0
315.59,0.51568,9.5131,0.041828,0,0,0,0
318.09,0.52677,9.5443,0.042622,0,0,0,0
320.59,0.53776,9.5749,0.043794,0,0,0,0
323.09,0.54985,9.6049,0.044839,0,0,0,0
325.59,0.56011,9.6359,0.04601,0,0,0,0
328.09,0.57229,9.6646,0.047053,0,0,0,0
330.59,0.58298,9.6947,0.048252,0,0,0,0
333.09,0.59484,9.7229,0.049481,0,0,0,0
335.59,0.60659,9.7507,0.050553,0,0,0,0
338.09,0.61795,9.7781,0.051904,0,0,0,0
340.59,0.63079,9.8064,0.052689,0,0,0,0
343.09,0.64238,9.8341,0.054009,0,0,0,0
345.59,0.65539,9.8601,0.055421,0,0,0,0
348.09,0.66728,9.886,0.056765,0,0,0,0
350.59,0.67986,9.9107,0.057734,0,0,0,0
353.09,0.69287,9.9359,0.059046,0,0,0,0
355.59,0.70486,9.9597,0.060418,0,0,0,0
358.09,0.71813,9.9836,0.06185,0,0,0,0
360.59,0.72985,10.006,0.06297,0,0,0,0
363.09,0.7431,10.028,0.064027,0,0,0,0
365.59,0.75492,10.05,0.065794,0,0,0,0
368.09,0.76803,10.073,0.067127,0,0,0,0
370.59,0.78024,10.093,0.068365,0,0,0,0
373.09,0.79263,10.115,0.069756,0,0,0,0
375.59,0.80547,10.135,0.07139,0,0,0,0
378.09,0.81766,10.154,0.072807,0,0,0,0
380.59,0.8312,10.174,0.074255,0,0,0,0
383.09,0.84315,10.193,0.075882,0,0,0,0
385.59,0.85742,10.211,0.077323,0,0,0,0
388.09,0.8697,10.229,0.078579,0,0,0,0
390.59,0.88331,10.247,0.080384,0,0,0,0
393.09,0.89622,10.265,0.081848,0,0,0,0
395.59,0.9097,10.281,0.083737,0,0,0,0
398.09,0.92327,10.297,0.085107,0,0,0,0
400.59,0.93625,10.313,0.08681,0,0,0,0
403.09,0.95062,10.329,0.088811,0,0,0,0
405.59,0.9632,10.344,0.090446,0,0,0,0
408.09,0.97777,10.358,0.092289,0,0,0,0
410.59,0.99061,10.373,0.094008,0,0,0,0
413.09,1.0055,10.388,0.096176,0,0,0,0
415.59,1.0187,10.4,0.097919,0,0,0,0
418.09,1.0332,10.413,0.09987,0,0,0,0
420.59,1.0465,10.426,0.10211,0,0,0,0
423.09,1.0602,10.438,0.10417,0,0,0,0
425.59,1.0744,10.45,0.10617,0,0,0,0
428.09,1.088,10.461,0.10834,0,0,0,0
430.59,1.1027,10.472,0.11063,0,0,0,0
433.09,1.1164,10.482,0.11279,0,0,0,0
435.59,1.1313,10.492,0.11536,0,0,0,0
438.09,1.1449,10.501,0.11742,0,0,0,0
440.59,1.16,10.51,0.11963,0,0,0,0
443.09,1.1737,10.519,0.12192,0,0,0,0
445.59,1.1889,10.528,0.12464,0,0,0,0
448.09,1.2032,10.535,0.12715,0,0,0,0
450.59,1.2189,10.542,0.12986,0,0,0,0
453.09,1.2334,10.549,0.1327,0,0,0,0
455.59,1.2489,10.555,0.13517,0,0,0,0
458.09,1.2636,10.56,0.13825,0,0,0,0
460.59,1.2788,10.565,0.14131,0,0,0,0
463.09,1.2943,10.57,0.14418,0,0,0,0
465.59,1.3093,10.574,0.14735,0,0,0,0
468.09,1.3251,10.577,0.15061,0,0,0,0
470.59,1.3404,10.58,0.15371,0,0,0,0
473.09,1.3565,10.582,0.15714,0,0,0,0
475.59,1.3716,10.583,0.16072,0,0,0,0
478.09,1.388,10.584,0.16463,0,0,0,0
480.59,1.4036,10.585,0.16794,0,0,0,0
483.09,1.4201,10.585,0.17172,0,0,0,0
485.59,1.4356,10.584,0.1755,0,0,0,0
488.09,1.4525,10.582,0.1798,0,0,0,0
490.59,1.4684,10.579,0.18435,0,0,0,0
493.09,1.4856,10.576,0.18836,0,0,0,0
495.59,1.5017,10.572,0.19277,0,0,0,0
498.09,1.5187,10.566,0.19748,0,0,0,0
500.59,1.5349,10.56,0.20215,0,0,0,0
503.09,1.552,10.553,0.20693,0,0,0,0
505.59,1.5683,10.546,0.21184,0,0,0,0
508.09,1.5857,10.537,0.21708,0,0,0,0
510.59,1.6021,10.527,0.22242,0,0,0,0
513.09,1.6196,10.517,0.22771,0,0,0,0
515.59,1.6359,10.505,0.2332,0,0,0,0
518.09,1.6537,10.493,0.23906,0,0,0,0
520.59,1.6706,10.479,0.24501,0,0,0,0
523.09,1.6886,10.465,0.2509,0,0,0,0
525.59,1.7054,10.448,0.25738,0,0,0,0
528.09,1.7236,10.431,0.26365,0,0,0,0
530.59,1.7409,10.413,0.27043,0,0,0,0
533.09,1.7589,10.393,0.27728,0,0,0,0
535.59,1.7768,10.371,0.28435,0,0,0,0
538.09,1.7947,10.348,0.29131,0,0,0,0
540.59,1.8129,10.325,0.29883,0,0,0,0
543.09,1.8307,10.297,0.30629,0,0,0,0
545.59,1.8495,10.271,0.31406,0,0,0,0
548.09,1.867,10.241,0.32211,0,0,0,0
550.59,1.8859,10.212,0.33033,0,0,0,0
553.09,1.9036,10.178,0.33865,0,0,0,0
555.59,1.9232,10.146,0.34695,0,0,0,0
558.09,1.9412,10.108,0.35553,0,0,0,0
560.59,1.9606,10.069,0.3645,0,0,0,0
563.09,1.979,10.027,0.37327,0,0,0,0
565.59,1.9991,9.983,0.38265,0,0,0,0
568.09,2.018,9.9366,0.39176,0,0,0,0
570.59,2.0378,9.8841,0.40132,0,0,0,0
573.09,2.0576,9.8323,0.41061,0,0,0,0
575.59,2.0774,9.7717,0.42115,0,0,0,0
578.09,2.098,9.7091,0.43151,0,0,0,0
580.59,2.1175,9.6391,0.44275,0,0,0,0
583.09,2.1394,9.563,0.4542,0,0,0,0
583.59,2.1468,9.5441,0.45943,0,0,0,0