File: LAB_DATA/DP600_results/DATA/NT6_45_2.csv
Time[s],Displacement[mm],Force[kN],AxStrain_1,AxStrain_2,Thickness[mm],OuterWidth[mm],InnerWidth[mm]
0.65,0,-0.019292,0,0,1.5295,20,10.008
3.15,0.00035,0.050436,-3.3001e-05,0,0,0,0
5.65,0.000735,0.18756,-4.7001e-05,0,0,0,0
8.15,0.001006,0.28515,-8.3003e-05,0,0,0,0
10.65,0.001215,0.37428,0.00011299,0,0,0,0
13.15,0.001613,0.46786,0.00016999,0,0,0,0
15.65,0.001779,0.559,2.3e-05,0,0,0,0
18.15,0.001867,0.65358,-1e-05,0,0,0,0
20.65,0.002276,0.75471,-0.00015601,0,0,0,0
23.15,0.002679,0.85515,-3e-05,0,0,0,0
25.65,0.003524,0.95828,3e-06,0,0,0,0
28.15,0.003589,1.0596,1.3e-05,0,0,0,0
30.65,0.00373,1.1629,-0.00016601,0,0,0,0
33.15,0.004449,1.267,-0.00012601,0,0,0,0
35.65,0.00557,1.3721,0.00014899,0,0,0,0
38.15,0.005697,1.477,-3e-05,0,0,0,0
40.65,0.005434,1.5786,-1.3e-05,0,0,0,0
43.15,0.006248,1.6841,-4.6001e-05,0,0,0,0
45.65,0.007296,1.7826,7.2997e-05,0,0,0,0
48.15,0.00763,1.8889,0.00025797,0,0,0,0
50.65,0.007227,1.9901,-0.00014201,0,0,0,0
53.15,0.007729,2.0944,-5.0001e-05,0,0,0,0
55.65,0.008904,2.1943,2.6e-05,0,0,0,0
58.15,0.009759,2.2964,3.5999e-05,0,0,0,0
60.65,0.00934,2.3981,-4.3001e-05,0,0,0,0
63.15,0.009321,2.4996,-3.6001e-05,0,0,0,0
65.65,0.010772,2.603,-6.0002e-05,0,0,0,0
68.15,0.011866,2.7044,0.00016199,0,0,0,0
70.65,0.011066,2.8076,0.00014199,0,0,0,0
73.15,0.010979,2.9076,0.00013199,0,0,0,0
75.65,0.012542,3.0091,0.00024497,0,0,0,0
78.15,0.01402,3.1097,0.00037693,0,0,0,0
80.65,0.013046,3.2117,0.00037093,0,0,0,0
83.15,0.012762,3.3137,0.00035094,0,0,0,0
85.65,0.01419,3.4119,0.00053286,0,0,0,0
88.15,0.015767,3.5131,0.00070775,0,0,0,0
90.65,0.015035,3.6086,0.00058283,0,0,0,0
93.15,0.014558,3.7113,0.00032395,0,0,0,0
95.65,0.016278,3.8084,0.00046289,0,0,0,0
98.15,0.018143,3.9091,0.00091658,0,0,0,0
100.65,0.017805,4.006,0.00074172,0,0,0,0
103.15,0.016986,4.1049,0.00048988,0,0,0,0
105.65,0.018781,4.2017,0.00048288,0,0,0,0
108.15,0.020655,4.2989,0.00067177,0,0,0,0
110.65,0.020784,4.399,0.00056284,0,0,0,0
113.15,0.019894,4.4951,0.00042991,0,0,0,0
115.65,0.021416,4.5936,0.00056284,0,0,0,0
118.15,0.023435,4.6886,0.0006288,0,0,0,0
120.65,0.023995,4.7839,0.00079468,0,0,0,0
123.15,0.023497,4.8787,0.0006288,0,0,0,0
125.65,0.024786,4.9751,0.0006288,0,0,0,0
128.15,0.0268,5.07,0.00079468,0,0,0,0
130.65,0.02743,5.1626,0.0011254,0,0,0,0
133.15,0.027588,5.2571,0.0010255,0,0,0,0
135.65,0.028346,5.3479,0.00082766,0,0,0,0
138.15,0.030493,5.4426,0.0013231,0,0,0,0
140.65,0.031583,5.533,0.0018193,0,0,0,0
143.15,0.032574,5.6271,0.0013571,0,0,0,0
145.65,0.033929,5.7163,0.0013231,0,0,0,0
148.15,0.035453,5.8051,0.0017535,0,0,0,0
150.65,0.037109,5.894,0.0021826,0,0,0,0
153.15,0.039555,5.9833,0.002018,0,0,0,0
155.65,0.042004,6.0726,0.001985,0,0,0,0
158.15,0.043389,6.1591,0.0022814,0,0,0,0
160.65,0.045473,6.2456,0.0028759,0,0,0,0
163.15,0.049078,6.3283,0.0026784,0,0,0,0
165.65,0.052848,6.4106,0.0027113,0,0,0,0
168.15,0.05486,6.4919,0.0033055,0,0,0,0
170.65,0.057136,6.573,0.0043943,0,0,0,0
173.15,0.061697,6.6521,0.0040986,0,0,0,0
175.65,0.06566,6.7271,0.0040657,0,0,0,0
178.15,0.069027,6.8049,0.0047577,0,0,0,0
180.65,0.074084,6.8769,0.0061083,0,0,0,0
183.15,0.077682,6.9527,0.0062067,0,0,0,0
185.65,0.08092,7.0233,0.0058777,0,0,0,0
188.15,0.087071,7.0969,0.0066012,0,0,0,0
190.65,0.092295,7.1651,0.0082776,0,0,0,0
193.15,0.096928,7.2326,0.0082776,0,0,0,0
195.65,0.10272,7.3006,0.0076209,0,0,0,0
198.15,0.10767,7.3669,0.0083104,0,0,0,0
200.65,0.11227,7.4331,0.0099513,0,0,0,0
203.15,0.11859,7.4976,0.010541,0,0,0,0
205.65,0.12544,7.5619,0.0096899,0,0,0,0
208.15,0.13096,7.6234,0.010246,0,0,0,0
210.65,0.13787,7.6841,0.012146,0,0,0,0
213.15,0.14373,7.745,0.012604,0,0,0,0
215.65,0.14882,7.8056,0.01195,0,0,0,0
218.15,0.15616,7.865,0.012376,0,0,0,0
220.65,0.16361,7.9224,0.014108,0,0,0,0
223.15,0.16995,7.9801,0.014893,0,0,0,0
225.65,0.17802,8.0341,0.014112,0,0,0,0
228.15,0.1848,8.0911,0.014634,0,0,0,0
230.65,0.19085,8.1446,0.016591,0,0,0,0
233.15,0.19932,8.1993,0.017273,0,0,0,0
235.65,0.20643,8.2503,0.017013,0,0,0,0
238.15,0.21411,8.3016,0.017436,0,0,0,0
240.65,0.2234,8.3526,0.018931,0,0,0,0
243.15,0.23078,8.4021,0.019809,0,0,0,0
245.65,0.23925,8.4517,0.019646,0,0,0,0
248.15,0.24785,8.5006,0.020359,0,0,0,0
250.65,0.25476,8.5484,0.021721,0,0,0,0
253.15,0.26409,8.5944,0.022303,0,0,0,0
255.65,0.27216,8.6411,0.022627,0,0,0,0
258.15,0.28106,8.687,0.023339,0,0,0,0
260.65,0.29102,8.7319,0.024342,0,0,0,0
263.15,0.29939,8.776,0.025246,0,0,0,0
265.65,0.30948,8.8194,0.025666,0,0,0,0
268.15,0.31854,8.8626,0.026795,0,0,0,0
270.65,0.32671,8.9034,0.027472,0,0,0,0
273.15,0.33696,8.9461,0.028052,0,0,0,0
275.65,0.3451,8.9861,0.029018,0,0,0,0
278.15,0.35522,9.0273,0.03008,0,0,0,0
280.65,0.36512,9.066,0.030657,0,0,0,0
283.15,0.37451,9.1046,0.031525,0,0,0,0
285.65,0.38602,9.1426,0.032615,0,0,0,0
288.15,0.39591,9.1801,0.033353,0,0,0,0
290.65,0.4065,9.2179,0.034344,0,0,0,0
293.15,0.41673,9.2541,0.035055,0,0,0,0
295.65,0.42573,9.2904,0.036174,0,0,0,0
298.15,0.43682,9.3249,0.036939,0,0,0,0
300.65,0.44562,9.3597,0.038184,0,0,0,0
303.15,0.45767,9.3934,0.039167,0,0,0,0
305.65,0.46813,9.4274,0.039962,0,0,0,0
308.15,0.47911,9.4609,0.041042,0,0,0,0
310.65,0.49119,9.4924,0.04222,0,0,0,0
313.15,0.50121,9.5246,0.043361,0,0,0,0
315.65,0.51345,9.5547,0.04412,0,0,0,0
318.15,0.52394,9.5866,0.045197,0,0,0,0
320.65,0.53538,9.6151,0.046685,0,0,0,0
323.15,0.54607,9.6463,0.047695,0,0,0,0
325.65,0.55696,9.6749,0.048484,0,0,0,0
328.15,0.569,9.7036,0.049747,0,0,0,0
330.65,0.57969,9.7324,0.051259,0,0,0,0
333.15,0.59306,9.7601,0.052364,0,0,0,0
335.65,0.60405,9.7886,0.053426,0,0,0,0
338.15,0.61616,9.8153,0.054743,0,0,0,0
340.65,0.62876,9.8419,0.056216,0,0,0,0
343.15,0.64054,9.8681,0.057217,0,0,0,0
345.65,0.65381,9.8927,0.058498,0,0,0,0
348.15,0.66533,9.9183,0.060091,0,0,0,0
350.65,0.67903,9.9421,0.061462,0,0,0,0
353.15,0.69058,9.966,0.062459,0,0,0,0
355.65,0.70338,9.9899,0.063702,0,0,0,0
358.15,0.71603,10.013,0.06541,0,0,0,0
360.65,0.72821,10.035,0.066899,0,0,0,0
363.15,0.74144,10.057,0.067952,0,0,0,0
365.65,0.75312,10.078,0.069561,0,0,0,0
368.15,0.76709,10.1,0.071135,0,0,0,0
370.65,0.779,10.12,0.072552,0,0,0,0
373.15,0.79287,10.141,0.074277,0,0,0,0
375.65,0.80551,10.16,0.075874,0,0,0,0
378.15,0.81868,10.18,0.077318,0,0,0,0
380.65,0.83272,10.198,0.079064,0,0,0,0
383.15,0.84609,10.217,0.08099,0,0,0,0
385.65,0.86025,10.235,0.082728,0,0,0,0
388.15,0.87146,10.252,0.084229,0,0,0,0
390.65,0.88773,10.269,0.086045,0,0,0,0
393.15,0.90068,10.285,0.087783,0,0,0,0
395.64,0.91531,10.301,0.089449,0,0,0,0
398.15,0.92836,10.317,0.091475,0,0,0,0
400.65,0.94338,10.332,0.093379,0,0,0,0
403.15,0.9558,10.347,0.095337,0,0,0,0
405.64,0.97095,10.361,0.097653,0,0,0,0
408.15,0.98465,10.374,0.09954,0,0,0,0
410.65,0.99954,10.388,0.10161,0,0,0,0
413.14,1.0135,10.401,0.104,0,0,0,0
415.65,1.0279,10.413,0.10615,0,0,0,0
418.14,1.0424,10.425,0.10841,0,0,0,0
420.65,1.0571,10.436,0.11069,0,0,0,0
423.15,1.072,10.447,0.11327,0,0,0,0
425.64,1.0862,10.456,0.11543,0,0,0,0
428.15,1.1016,10.466,0.11814,0,0,0,0
430.64,1.116,10.475,0.12069,0,0,0,0
433.14,1.1317,10.484,0.1231,0,0,0,0
435.64,1.1456,10.492,0.12555,0,0,0,0
438.14,1.1621,10.499,0.12838,0,0,0,0
440.64,1.1758,10.506,0.1312,0,0,0,0
443.15,1.1919,10.513,0.13407,0,0,0,0
445.64,1.2066,10.519,0.13702,0,0,0,0
448.14,1.2228,10.524,0.14011,0,0,0,0
450.64,1.2375,10.528,0.14327,0,0,0,0
453.14,1.2538,10.533,0.14659,0,0,0,0
455.64,1.2691,10.536,0.14974,0,0,0,0
458.14,1.2852,10.539,0.15335,0,0,0,0
460.64,1.3007,10.541,0.15695,0,0,0,0
463.14,1.3174,10.543,0.16015,0,0,0,0
465.64,1.3331,10.544,0.16378,0,0,0,0
468.14,1.3495,10.543,0.16754,0,0,0,0
470.64,1.3653,10.543,0.17159,0,0,0,0
473.14,1.3818,10.542,0.17563,0,0,0,0
475.64,1.3982,10.54,0.17989,0,0,0,0
478.14,1.4146,10.536,0.18417,0,0,0,0
480.64,1.4314,10.533,0.18865,0,0,0,0
483.14,1.4481,10.528,0.19314,0,0,0,0
485.64,1.4645,10.522,0.1979,0,0,0,0
488.14,1.4817,10.516,0.20235,0,0,0,0
490.64,1.4986,10.508,0.20745,0,0,0,0
493.14,1.5157,10.5,0.21247,0,0,0,0
495.64,1.5325,10.491,0.21797,0,0,0,0
498.14,1.55,10.48,0.22354,0,0,0,0
500.64,1.5667,10.468,0.2289,0,0,0,0
503.14,1.5842,10.456,0.23434,0,0,0,0
505.64,1.6009,10.442,0.23998,0,0,0,0
508.14,1.6189,10.426,0.24632,0,0,0,0
510.64,1.6355,10.411,0.25205,0,0,0,0
513.14,1.6538,10.395,0.25821,0,0,0,0
515.64,1.6708,10.377,0.26504,0,0,0,0
518.14,1.6892,10.356,0.27182,0,0,0,0
520.64,1.7062,10.336,0.27836,0,0,0,0
523.14,1.7249,10.313,0.28553,0,0,0,0
525.64,1.7422,10.29,0.29258,0,0,0,0
528.14,1.7615,10.265,0.29974,0,0,0,0
530.64,1.7785,10.238,0.30703,0,0,0,0
533.14,1.798,10.209,0.31513,0,0,0,0
535.64,1.8156,10.177,0.32383,0,0,0,0
538.14,1.8349,10.145,0.33121,0,0,0,0
540.64,1.8533,10.111,0.33957,0,0,0,0
543.14,1.8724,10.073,0.34807,0,0,0,0
545.64,1.8906,10.035,0.35624,0,0,0,0
548.14,1.9101,9.993,0.36465,0,0,0,0
550.64,1.9296,9.9484,0.37312,0,0,0,0
553.14,1.9483,9.9003,0.3817,0,0,0,0
555.64,1.9681,9.851,0.39093,0,0,0,0
558.14,1.987,9.7981,0.4002,0,0,0,0
560.64,2.0078,9.7419,0.40969,0,0,0,0
563.14,2.0268,9.679,0.41986,0,0,0,0
565.64,2.0481,9.6134,0.43005,0,0,0,0
568.14,2.0675,9.5399,0.44023,0,0,0,0
570.64,2.0886,9.464,0.45119,0,0,0,0
573.14,2.11,9.3801,0.46201,0,0,0,0
575.64,2.1315,9.289,0.4736,0,0,0,0
578.14,2.1547,9.1881,0.48439,0,0,0,0
580.64,2.177,9.075,0.49645,0,0,0,0
583.14,2.2023,8.9477,0.50889,0,0,0,0
583.64,2.2075,8.9214,0.51161,0,0,0,0