File: polyN_optimization/DP600_results/DATA/CH_00_3.csv
Time[s],Displacement[mm],Force[kN],AxStrain_1,AxStrain_2,Thickness[mm],OuterWidth[mm],Diameter[mm]
0.65,0,-0.016587,0,0,1.5298,20,4.9095
4.15,0.000644,0.11328,6.3998e-05,-2.5e-05,0,0,0
7.65,0.000765,0.26729,8.2997e-05,-2.4e-05,0,0,0
11.15,0.00083,0.39785,-7.5003e-05,-0.00020502,0,0,0
14.65,0.001393,0.53143,-8.8004e-05,0.00014199,0,0,0
18.15,0.001536,0.65928,0.00016899,3e-05,0,0,0
21.65,0.001705,0.79471,9.5995e-05,6.5998e-05,0,0,0
25.15,0.002483,0.93758,0.00019498,0.00010299,0,0,0
28.65,0.002857,1.0791,0.00030095,0.00026197,0,0,0
32.15,0.003009,1.2236,0.00042691,0.00021198,0,0,0
35.65,0.0039,1.3686,0.00028496,0.00011599,0,0,0
39.15,0.004122,1.5147,0.00036393,0.00030095,0,0,0
42.65,0.004413,1.656,0.00031095,0.00032095,0,0,0
46.15,0.00531,1.7967,0.00023797,0.00039092,0,0,0
49.65,0.005694,1.9376,0.00060582,0.00041991,0,0,0
53.15,0.005635,2.0801,0.00069476,0.00039692,0,0,0
56.65,0.00721,2.2216,0.00065179,0.00064179,0,0,0
60.15,0.006999,2.3604,0.00091958,0.00048688,0,0,0
63.65,0.007009,2.4981,0.00061181,0.00057583,0,0,0
67.15,0.008574,2.6399,0.00071175,0.00066178,0,0,0
70.65,0.008627,2.7799,0.00094955,0.00072774,0,0,0
74.15,0.008137,2.9237,0.0007747,0.00051986,0,0,0
77.65,0.010216,3.0643,0.00067477,0.00061581,0,0,0
81.15,0.009809,3.2034,0.00086662,0.0007707,0,0,0
84.65,0.00969,3.3424,0.00068876,0.00054985,0,0,0
88.15,0.011799,3.4813,0.00065179,0.00084065,0,0,0
91.65,0.011431,3.6177,0.0010984,0.00085663,0,0,0
95.15,0.011272,3.7546,0.00085663,0.00078469,0,0,0
98.65,0.013669,3.8913,0.0010554,0.0010684,0,0,0
102.15,0.013226,4.0294,0.0011973,0.0011114,0,0,0
105.65,0.013457,4.162,0.00092357,0.00094655,0,0,0
109.15,0.015735,4.296,0.0011683,0.0010624,0,0,0
112.65,0.01503,4.4296,0.0014559,0.0012572,0,0,0
116.15,0.015195,4.5664,0.0012243,0.0012572,0,0,0
119.65,0.017678,4.7011,0.0016536,0.0016207,0,0,0
123.15,0.016718,4.8334,0.0014889,0.0015218,0,0,0
126.65,0.017513,4.9634,0.0015218,0.0012902,0,0,0
130.15,0.019631,5.0936,0.0018852,0.0019182,0,0,0
133.65,0.018771,5.2253,0.0017205,0.0016536,0,0,0
137.15,0.019499,5.3597,0.0016866,0.001423,0,0,0
140.65,0.021883,5.491,0.002017,0.0021168,0,0,0
144.15,0.020989,5.6241,0.001984,0.0018193,0,0,0
147.65,0.022578,5.7564,0.0017535,0.0017195,0,0,0
151.15,0.024299,5.889,0.0023812,0.0025458,0,0,0
154.65,0.023703,6.02,0.0022814,0.0019511,0,0,0
158.15,0.025458,6.152,0.0022485,0.0022485,0,0,0
161.65,0.026881,6.2846,0.0031401,0.00281,0,0,0
165.15,0.026981,6.4126,0.0026445,0.0022485,0,0,0
168.65,0.028835,6.5471,0.0027442,0.0025787,0,0,0
172.15,0.030026,6.6749,0.0035029,0.0033055,0,0,0
175.65,0.030688,6.8001,0.0030414,0.002843,0,0,0
179.15,0.032344,6.9266,0.0034371,0.0033713,0,0,0
182.65,0.033569,7.0554,0.0039313,0.0040637,0,0,0
186.15,0.035191,7.181,0.0037998,0.0036683,0,0,0
189.65,0.036383,7.3029,0.0041623,0.0040637,0,0,0
193.15,0.037872,7.4251,0.0051179,0.0049209,0,0,0
196.65,0.040752,7.5486,0.0048214,0.0043933,0,0,0
200.15,0.041845,7.6711,0.0054471,0.005283,0,0,0
203.65,0.043964,7.7909,0.0062047,0.0061391,0,0,0
207.15,0.047638,7.9077,0.0056122,0.0056122,0,0,0
210.65,0.048168,8.0239,0.0065992,0.0068296,0,0,0
214.15,0.051379,8.1411,0.0075852,0.0073559,0,0,0
217.65,0.055087,8.255,0.0072894,0.0070263,0,0,0
221.15,0.056742,8.3683,0.0088656,0.0083738,0,0,0
224.65,0.061013,8.479,0.0094888,0.0092927,0,0,0
228.15,0.064555,8.5897,0.0091282,0.0090628,0,0,0
231.65,0.06876,8.6971,0.011094,0.011029,0,0,0
235.15,0.072402,8.8029,0.011488,0.011618,0,0,0
238.65,0.076076,8.9064,0.011683,0.01152,0,0,0
242.15,0.0823,9.0094,0.01407,0.013809,0,0,0
245.65,0.085875,9.11,0.014363,0.014331,0,0,0
249.15,0.09094,9.21,0.014559,0.014462,0,0,0
252.65,0.096899,9.3063,0.017036,0.016678,0,0,0
256.15,0.10216,9.4027,0.017687,0.017329,0,0,0
259.65,0.10832,9.4964,0.018369,0.017784,0,0,0
263.15,0.11299,9.5906,0.020545,0.019993,0,0,0
266.65,0.12067,9.6807,0.021388,0.020901,0,0,0
270.15,0.12653,9.7683,0.022229,0.02155,0,0,0
273.65,0.13348,9.8556,0.024396,0.023654,0,0,0
277.15,0.13967,9.9426,0.02543,0.024559,0,0,0
280.65,0.14705,10.028,0.026623,0.025786,0,0,0
284.15,0.15507,10.111,0.028104,0.027334,0,0,0
287.65,0.16083,10.192,0.029488,0.028364,0,0,0
291.15,0.16874,10.272,0.030837,0.02965,0,0,0
294.65,0.17553,10.351,0.032473,0.031191,0,0,0
298.15,0.18496,10.431,0.034042,0.032474,0,0,0
301.65,0.19138,10.506,0.035416,0.033979,0,0,0
305.15,0.20003,10.581,0.036758,0.035259,0,0,0
308.65,0.20724,10.655,0.038702,0.036823,0,0,0
312.15,0.21654,10.726,0.040103,0.038258,0,0,0
315.65,0.22446,10.798,0.041851,0.03985,0,0,0
319.15,0.23306,10.867,0.043595,0.041344,0,0,0
322.65,0.24078,10.934,0.045305,0.042963,0,0,0
326.15,0.24952,11.001,0.047075,0.044643,0,0,0
329.65,0.25853,11.066,0.048464,0.046035,0,0,0
333.15,0.26697,11.131,0.050355,0.047773,0,0,0
336.65,0.27538,11.195,0.051991,0.049318,0,0,0
340.15,0.28375,11.259,0.053403,0.050704,0,0,0
343.65,0.29425,11.321,0.055441,0.052747,0,0,0
347.15,0.30332,11.381,0.057382,0.054285,0,0,0
350.64,0.31289,11.441,0.058943,0.055569,0,0,0
354.14,0.3208,11.499,0.060845,0.05779,0,0,0
357.64,0.33129,11.555,0.062868,0.059133,0,0,0
361.15,0.34026,11.613,0.064545,0.060723,0,0,0
364.64,0.35063,11.668,0.066313,0.062778,0,0,0
368.14,0.3592,11.722,0.068263,0.064828,0,0,0
371.64,0.3694,11.775,0.069622,0.066192,0,0,0
375.14,0.37797,11.829,0.071782,0.068267,0,0,0
378.64,0.38926,11.881,0.073659,0.07012,0,0,0
382.14,0.3987,11.932,0.075718,0.071632,0,0,0
385.64,0.40866,11.982,0.078047,0.073756,0,0,0
389.14,0.4179,12.032,0.079822,0.075323,0,0,0
392.64,0.42873,12.079,0.082051,0.077348,0,0,0
396.14,0.43886,12.129,0.084001,0.079644,0,0,0
399.64,0.45005,12.176,0.085552,0.081415,0,0,0
403.14,0.45909,12.221,0.087616,0.083031,0,0,0
406.64,0.47008,12.267,0.089798,0.085132,0,0,0
410.14,0.48011,12.314,0.091129,0.087136,0,0,0
413.64,0.49163,12.358,0.093423,0.088894,0,0,0
417.14,0.50183,12.403,0.095441,0.091013,0,0,0
420.64,0.51338,12.446,0.097905,0.092855,0,0,0
424.14,0.52311,12.49,0.099825,0.095056,0,0,0
427.64,0.53434,12.532,0.10222,0.096921,0,0,0
431.14,0.54549,12.575,0.10479,0.099111,0,0,0
434.64,0.55711,12.616,0.1066,0.10094,0,0,0
438.14,0.56804,12.654,0.10937,0.10318,0,0,0
441.64,0.57896,12.695,0.11156,0.10524,0,0,0
445.14,0.58986,12.735,0.11357,0.10729,0,0,0
448.64,0.60111,12.774,0.1159,0.10923,0,0,0
452.14,0.61286,12.814,0.11811,0.11166,0,0,0
455.64,0.62452,12.851,0.12026,0.11399,0,0,0
459.14,0.63647,12.89,0.12266,0.11618,0,0,0
462.64,0.6468,12.927,0.12529,0.11841,0,0,0
466.14,0.65905,12.964,0.12766,0.12094,0,0,0
469.64,0.6703,13.001,0.12993,0.12329,0,0,0
473.14,0.68335,13.036,0.13294,0.12577,0,0,0
476.64,0.69484,13.073,0.13549,0.12801,0,0,0
480.14,0.70761,13.108,0.13809,0.13075,0,0,0
483.64,0.71818,13.142,0.14065,0.13324,0,0,0
487.14,0.73112,13.178,0.14341,0.13596,0,0,0
490.64,0.74248,13.211,0.14619,0.13859,0,0,0
494.14,0.75569,13.245,0.14873,0.1413,0,0,0
497.64,0.76803,13.278,0.15121,0.14379,0,0,0
501.14,0.78068,13.31,0.15465,0.14634,0,0,0
504.64,0.79266,13.343,0.15717,0.14948,0,0,0
508.14,0.80501,13.374,0.15966,0.15145,0,0,0
511.64,0.81756,13.405,0.16292,0.15463,0,0,0
515.14,0.83037,13.436,0.1661,0.15744,0,0,0
518.64,0.84381,13.467,0.1689,0.16029,0,0,0
522.14,0.85626,13.498,0.1718,0.16308,0,0,0
525.64,0.86997,13.527,0.17492,0.16625,0,0,0
529.14,0.88145,13.557,0.17769,0.16933,0,0,0
532.64,0.89543,13.586,0.18082,0.17218,0,0,0
536.14,0.90817,13.616,0.18416,0.17527,0,0,0
539.64,0.92224,13.644,0.18727,0.17854,0,0,0
543.14,0.93529,13.671,0.19086,0.18152,0,0,0
546.64,0.94849,13.699,0.19405,0.18478,0,0,0
550.14,0.96263,13.726,0.19781,0.18824,0,0,0
553.64,0.97544,13.753,0.2009,0.19153,0,0,0
557.14,0.98958,13.78,0.2042,0.19516,0,0,0
560.64,1.0027,13.805,0.20832,0.19864,0,0,0
564.14,1.0176,13.832,0.21146,0.20197,0,0,0
567.64,1.0309,13.857,0.2152,0.20521,0,0,0
571.14,1.0457,13.883,0.21856,0.20909,0,0,0
574.64,1.0592,13.907,0.22273,0.21279,0,0,0
578.14,1.0731,13.931,0.22625,0.21621,0,0,0
581.64,1.0875,13.956,0.2302,0.21959,0,0,0
585.14,1.1015,13.979,0.23403,0.22317,0,0,0
588.64,1.1165,14.002,0.23764,0.22734,0,0,0
592.14,1.1304,14.025,0.24196,0.23087,0,0,0
595.64,1.1459,14.048,0.24549,0.23538,0,0,0
599.14,1.1601,14.07,0.25017,0.23909,0,0,0
602.64,1.1751,14.092,0.254,0.24401,0,0,0
606.14,1.1899,14.114,0.25905,0.24789,0,0,0
609.64,1.2048,14.135,0.26254,0.25232,0,0,0
613.14,1.2205,14.156,0.26798,0.25607,0,0,0
616.64,1.2354,14.176,0.27096,0.26083,0,0,0
620.14,1.2515,14.195,0.27685,0.26516,0,0,0
623.64,1.2668,14.214,0.28106,0.27023,0,0,0
627.14,1.2822,14.234,0.28654,0.27416,0,0,0
630.64,1.2979,14.252,0.29016,0.27878,0,0,0
634.14,1.3129,14.271,0.2972,0.2835,0,0,0
637.64,1.3292,14.288,0.30017,0.28905,0,0,0
641.14,1.3446,14.305,0.30672,0.2935,0,0,0
644.64,1.3612,14.322,0.30954,0.29825,0,0,0
648.14,1.3779,14.34,0.31656,0.30301,0,0,0
651.64,1.3938,14.356,0.32063,0.30901,0,0,0
655.14,1.4111,14.371,0.32695,0.3147,0,0,0
658.64,1.4275,14.386,0.332,0.32054,0,0,0
662.14,1.4447,14.4,0.33799,0.32648,0,0,0
665.64,1.4618,14.415,0.34359,0.3318,0,0,0
669.14,1.478,14.428,0.34961,0.33866,0,0,0
672.64,1.4959,14.441,0.35582,0.34413,0,0,0
676.14,1.5128,14.454,0.36126,0.35058,0,0,0
679.64,1.5307,14.465,0.36848,0.35593,0,0,0
683.14,1.5494,14.476,0.37336,0.36367,0,0,0
686.64,1.5671,14.487,0.37973,0.36895,0,0,0
690.14,1.5858,14.496,0.38614,0.37683,0,0,0
693.64,1.6045,14.505,0.39427,0.38276,0,0,0
697.14,1.6231,14.513,-Inf,0.3904,0,0,0
700.64,1.6426,14.52,-Inf,0.39783,0,0,0
704.14,1.6614,14.525,-Inf,0.40759,0,0,0
707.64,1.6805,14.531,-Inf,0.41608,0,0,0
711.14,1.7005,14.535,-Inf,0.42586,0,0,0
714.64,1.7206,14.537,-Inf,0.43631,0,0,0
718.14,1.7405,14.539,-Inf,0.44679,0,0,0
721.64,1.7619,14.539,-Inf,0.45817,0,0,0
725.14,1.7826,14.537,-Inf,0.46921,0,0,0
728.64,1.8041,14.533,-Inf,0.48096,0,0,0
732.14,1.8264,14.528,-Inf,0.49203,0,0,0
735.64,1.8483,14.52,-Inf,-Inf,0,0,0
739.14,1.8707,14.509,-Inf,-Inf,0,0,0
742.64,1.8943,14.496,-Inf,-Inf,0,0,0
746.14,1.9172,14.48,-Inf,-Inf,0,0,0
749.64,1.9404,14.459,-Inf,-Inf,0,0,0
753.14,1.9649,14.437,-Inf,-Inf,0,0,0
756.64,1.9893,14.41,-Inf,-Inf,0,0,0
760.14,2.0136,14.379,-Inf,-Inf,0,0,0
763.64,2.0386,14.339,-Inf,-Inf,0,0,0
767.14,2.065,14.293,-Inf,-Inf,0,0,0
770.64,2.0918,14.235,-Inf,-Inf,0,0,0
774.14,2.1191,14.156,-Inf,-Inf,0,0,0
775.64,2.1355,14.105,-Inf,-Inf,0,0,0