File: polyN_optimization/DP600_results/DATA/CH_00_2.csv
Time[s],Displacement[mm],Force[kN],AxStrain_1,AxStrain_2,Thickness[mm],OuterWidth[mm],Diameter[mm]
0.64,0,-0.015295,0,0,1.513,20,4.9055
4.14,0.000344,0.10844,0.00029096,9.2996e-05,0,0,0
7.64,0.000528,0.26814,0.00043091,9.3996e-05,0,0,0
11.14,0.000932,0.39815,9.9995e-05,0.00020698,0,0,0
14.64,0.001306,0.52456,0.00028696,0.00013899,0,0,0
18.14,0.001543,0.65243,0.00072774,0.00013199,0,0,0
21.64,0.00195,0.79071,0.00037393,0.00013899,0,0,0
25.14,0.002665,0.93129,0.00023797,0.00013899,0,0,0
28.64,0.002847,1.0704,0.0006258,0.00013199,0,0,0
32.14,0.003003,1.2129,0.00034794,0.00031795,0,0,0
35.64,0.004218,1.3556,0.00048288,0.00050987,0,0,0
39.14,0.004314,1.4994,0.00033095,0.00037393,0,0,0
42.64,0.00439,1.6393,0.00035794,0.00050687,0,0,0
46.14,0.005883,1.779,0.0006258,0.00049688,0,0,0
49.64,0.005691,1.9179,0.00058583,0.00029096,0,0,0
53.14,0.005783,2.0601,0.00052286,0.00070475,0,0,0
56.64,0.007611,2.1996,0.00078769,0.00067477,0,0,0
60.14,0.006936,2.3357,0.0010355,0.00048688,0,0,0
63.64,0.007465,2.4746,0.0010385,0.00056584,0,0,0
67.14,0.009164,2.6133,0.00090959,0.00068477,0,0,0
70.64,0.008952,2.7531,0.0014849,0.00040692,0,0,0
74.14,0.008925,2.8903,0.0010624,0.00069476,0,0,0
77.64,0.01061,3.0274,0.0011583,0.00084364,0,0,0
81.14,0.010379,3.1639,0.0013201,0.00056284,0,0,0
84.64,0.010845,3.3024,0.0010295,0.00087662,0,0,0
88.14,0.012712,3.4409,0.0013301,0.00090959,0,0,0
91.64,0.011779,3.5763,0.0011014,0.00084065,0,0,0
95.14,0.012497,3.7104,0.0010684,0.0013002,0,0,0
98.64,0.014368,3.8446,0.0012902,0.0011284,0,0,0
102.14,0.013338,3.9799,0.0015089,0.0010654,0,0,0
105.64,0.014321,4.1159,0.0013131,0.001432,0,0,0
109.14,0.016281,4.2493,0.0016836,0.0015977,0,0,0
112.64,0.015229,4.3839,0.0018193,0.0012902,0,0,0
116.14,0.01652,4.5177,0.0014889,0.0015877,0,0,0
119.64,0.018274,4.6497,0.0022814,0.0017535,0,0,0
123.14,0.017149,4.7797,0.001984,0.0015877,0,0,0
126.64,0.01887,4.9103,0.0017535,0.0017535,0,0,0
130.14,0.020227,5.0396,0.0021826,0.0017864,0,0,0
133.64,0.019433,5.1681,0.0019182,0.002017,0,0,0
137.14,0.020856,5.2976,0.0017195,0.0020838,0,0,0
140.64,0.022445,5.4289,0.002017,0.0021826,0,0,0
144.14,0.022015,5.5566,0.0023472,0.0020838,0,0,0
147.64,0.02367,5.6873,0.0020838,0.0023812,0,0,0
151.14,0.024829,5.8179,0.0029417,0.002843,0,0,0
154.64,0.024796,5.9477,0.0026116,0.0026455,0,0,0
158.14,0.026584,6.0756,0.00281,0.0031072,0,0,0
161.64,0.027775,6.2041,0.0036354,0.0029756,0,0,0
165.14,0.028173,6.3301,0.0030743,0.0029756,0,0,0
168.64,0.029629,6.4594,0.0030414,0.0035686,0,0,0
172.14,0.030887,6.5861,0.00347,0.0037011,0,0,0
175.64,0.031781,6.7116,0.003173,0.0036683,0,0,0
179.14,0.033072,6.8367,0.0033384,0.0044262,0,0,0
182.64,0.034695,6.9607,0.0047885,0.0043933,0,0,0
186.14,0.036615,7.0841,0.0041952,0.004229,0,0,0
189.64,0.037343,7.2101,0.0041952,0.005283,0,0,0
193.14,0.039594,7.3316,0.0051179,0.0050522,0,0,0
196.64,0.041911,7.4541,0.00469,0.0051845,0,0,0
200.14,0.042574,7.5739,0.0058091,0.006632,0,0,0
203.64,0.045653,7.6944,0.006632,0.0062375,0,0,0
207.14,0.048301,7.8144,0.0062375,0.0065674,0,0,0
210.64,0.049393,7.9336,0.0072894,0.0081437,0,0,0
214.14,0.053366,8.0511,0.0076179,0.0079146,0,0,0
217.64,0.056478,8.1693,0.0076844,0.0080128,0,0,0
221.14,0.058299,8.2853,0.0096533,0.0099484,0,0,0
224.64,0.062636,8.4,0.010014,0.010014,0,0,0
228.14,0.066443,8.5139,0.009784,0.010244,0,0,0
231.64,0.071011,8.6269,0.011913,0.012207,0,0,0
235.14,0.074388,8.7359,0.012502,0.012077,0,0,0
238.64,0.078858,8.8439,0.012828,0.012829,0,0,0
242.14,0.085015,8.9493,0.015147,0.014756,0,0,0
245.64,0.088856,9.0527,0.015081,0.015245,0,0,0
249.14,0.094814,9.153,0.015896,0.015702,0,0,0
252.64,0.10014,9.2527,0.018175,0.017623,0,0,0
256.14,0.1065,9.3501,0.018987,0.018273,0,0,0
259.64,0.11236,9.4461,0.019539,0.018923,0,0,0
263.14,0.11733,9.5394,0.021226,0.020934,0,0,0
266.64,0.12517,9.6299,0.022619,0.022036,0,0,0
270.14,0.13163,9.7189,0.023557,0.022911,0,0,0
273.64,0.13911,9.8076,0.025527,0.024495,0,0,0
277.14,0.14424,9.8949,0.026753,0.025528,0,0,0
280.64,0.15235,9.9793,0.028299,0.026851,0,0,0
284.14,0.16003,10.061,0.029425,0.028075,0,0,0
287.64,0.16735,10.142,0.030807,0.029394,0,0,0
291.14,0.17433,10.222,0.03273,0.03068,0,0,0
294.64,0.18175,10.303,0.03414,0.03145,0,0,0
298.14,0.19069,10.379,0.035801,0.033245,0,0,0
301.64,0.19844,10.455,0.037206,0.034748,0,0,0
305.14,0.20648,10.53,0.038481,0.036154,0,0,0
308.64,0.2137,10.603,0.040072,0.037398,0,0,0
312.14,0.22353,10.674,0.041948,0.038833,0,0,0
315.64,0.23137,10.745,0.043977,0.040551,0,0,0
319.14,0.24038,10.814,0.045559,0.041567,0,0,0
322.64,0.24727,10.88,0.047202,0.043788,0,0,0
326.14,0.25683,10.946,0.048685,0.045624,0,0,0
329.64,0.26571,11.011,0.049694,0.0461,0,0,0
333.14,0.27547,11.076,0.052022,0.048374,0,0,0
336.64,0.28282,11.14,0.053404,0.050139,0,0,0
340.14,0.29239,11.201,0.054565,0.050895,0,0,0
343.64,0.30162,11.262,0.057007,0.053377,0,0,0
347.14,0.31179,11.321,0.0586,0.054444,0,0,0
350.64,0.3204,11.381,0.059973,0.055979,0,0,0
354.14,0.3295,11.437,0.062029,0.05795,0,0,0
357.64,0.33841,11.494,0.063396,0.059573,0,0,0
361.14,0.34873,11.549,0.065042,0.061256,0,0,0
364.64,0.35817,11.603,0.067118,0.062625,0,0,0
368.14,0.36787,11.656,0.069221,0.06449,0,0,0
371.64,0.37634,11.709,0.07061,0.066163,0,0,0
375.14,0.38664,11.762,0.072736,0.067714,0,0,0
378.64,0.39687,11.813,0.074613,0.069444,0,0,0
382.14,0.4075,11.864,0.076086,0.071143,0,0,0
385.64,0.417,11.912,0.078324,0.072776,0,0,0
389.14,0.42686,11.96,0.080555,0.074836,0,0,0
392.64,0.43676,12.009,0.081654,0.076463,0,0,0
396.14,0.44792,12.056,0.084274,0.078668,0,0,0
399.64,0.45802,12.102,0.08628,0.07983,0,0,0
403.14,0.46887,12.148,0.087646,0.081663,0,0,0
406.64,0.47811,12.193,0.090221,0.083919,0,0,0
410.14,0.48907,12.238,0.093151,0.085318,0,0,0
413.64,0.49963,12.282,0.094658,0.087776,0,0,0
417.14,0.51108,12.326,0.097394,0.09008,0,0,0
420.64,0.52161,12.369,0.099705,0.091863,0,0,0
424.14,0.53244,12.412,0.10174,0.093735,0,0,0
427.64,0.54243,12.454,0.10347,0.096024,0,0,0
431.14,0.55452,12.495,0.1061,0.097856,0,0,0
434.64,0.56511,12.535,0.10824,0.10011,0,0,0
438.14,0.57716,12.575,0.10999,0.10226,0,0,0
441.64,0.58739,12.615,0.11233,0.10459,0,0,0
445.14,0.59875,12.654,0.11502,0.10655,0,0,0
448.64,0.60911,12.691,0.11673,0.10884,0,0,0
452.14,0.62159,12.73,0.11885,0.11092,0,0,0
455.64,0.63278,12.768,0.12169,0.11296,0,0,0
459.14,0.6449,12.805,0.12374,0.11494,0,0,0
462.64,0.65562,12.842,0.12599,0.11742,0,0,0
466.14,0.66741,12.877,0.12879,0.11983,0,0,0
469.64,0.6789,12.914,0.13115,0.12209,0,0,0
473.14,0.69158,12.949,0.1337,0.12446,0,0,0
476.64,0.70362,12.984,0.13627,0.12668,0,0,0
480.14,0.71584,13.017,0.13893,0.12895,0,0,0
483.64,0.72726,13.052,0.1412,0.13122,0,0,0
487.14,0.73925,13.086,0.14421,0.13348,0,0,0
490.64,0.75156,13.119,0.14648,0.13635,0,0,0
494.14,0.76391,13.152,0.14953,0.1392,0,0,0
497.64,0.77689,13.184,0.15263,0.14139,0,0,0
501.14,0.78884,13.216,0.15465,0.14455,0,0,0
504.64,0.80165,13.248,0.15782,0.14738,0,0,0
508.14,0.81304,13.278,0.16053,0.14992,0,0,0
511.64,0.82618,13.309,0.16363,0.15302,0,0,0
515.14,0.83853,13.339,0.1666,0.1556,0,0,0
518.64,0.85174,13.37,0.16921,0.15897,0,0,0
522.14,0.86422,13.399,0.17197,0.1621,0,0,0
525.64,0.87743,13.429,0.17461,0.16446,0,0,0
529.14,0.88994,13.458,0.17778,0.16805,0,0,0
532.64,0.90302,13.486,0.18046,0.17104,0,0,0
536.14,0.91643,13.515,0.18441,0.17463,0,0,0
539.64,0.9295,13.543,0.18718,0.17738,0,0,0
543.14,0.9439,13.57,0.18976,0.18106,0,0,0
546.64,0.95665,13.598,0.19331,0.18382,0,0,0
550.14,0.97049,13.624,0.19715,0.18668,0,0,0
553.64,0.98333,13.65,0.20044,0.18994,0,0,0
557.14,0.9972,13.676,0.20357,0.19287,0,0,0
560.64,1.0106,13.701,0.20727,0.19699,0,0,0
564.14,1.0247,13.727,0.21052,0.20081,0,0,0
567.64,1.0389,13.752,0.21376,0.20381,0,0,0
571.14,1.0529,13.777,0.21712,0.20724,0,0,0
574.64,1.0673,13.801,0.22031,0.21062,0,0,0
578.14,1.0809,13.824,0.22476,0.21472,0,0,0
581.64,1.0955,13.848,0.22806,0.21773,0,0,0
585.14,1.109,13.87,0.23154,0.22137,0,0,0
588.64,1.1239,13.894,0.23625,0.2255,0,0,0
592.14,1.1388,13.916,0.23915,0.22956,0,0,0
595.64,1.1535,13.938,0.24297,0.23323,0,0,0
599.14,1.1684,13.959,0.24787,0.23768,0,0,0
602.64,1.1828,13.981,0.25266,0.2412,0,0,0
606.14,1.1982,14.003,0.25692,0.24631,0,0,0
609.64,1.2127,14.023,0.26109,0.25016,0,0,0
613.14,1.2282,14.043,0.26549,0.2541,0,0,0
616.64,1.2438,14.063,0.26927,0.25853,0,0,0
620.14,1.2592,14.082,0.27378,0.26363,0,0,0
623.64,1.2756,14.101,0.27718,0.26847,0,0,0
627.14,1.2905,14.119,0.28146,0.27347,0,0,0
630.64,1.3068,14.136,0.28542,0.27804,0,0,0
634.14,1.3224,14.154,0.29032,0.28262,0,0,0
637.64,1.3382,14.171,0.29518,0.2871,0,0,0
641.14,1.3544,14.188,0.29958,0.2925,0,0,0
644.64,1.3701,14.204,0.30443,0.2978,0,0,0
648.14,1.387,14.219,0.30974,0.30232,0,0,0
651.64,1.4036,14.236,0.31454,0.30837,0,0,0
655.14,1.4206,14.25,0.3196,0.3132,0,0,0
658.64,1.4377,14.263,0.32612,0.31969,0,0,0
662.14,1.4545,14.277,0.33191,0.32509,0,0,0
665.64,1.4719,14.29,0.33698,0.3319,0,0,0
669.14,1.4891,14.302,0.34263,0.33776,0,0,0
672.64,1.5067,14.314,0.3477,0.34369,0,0,0
676.14,1.525,14.325,0.3545,0.34994,0,0,0
679.64,1.5426,14.335,-Inf,0.35706,0,0,0
683.14,1.5609,14.344,-Inf,-Inf,0,0,0
686.64,1.5797,14.353,-Inf,-Inf,0,0,0
690.14,1.5982,14.36,-Inf,-Inf,0,0,0
693.64,1.6181,14.367,-Inf,-Inf,0,0,0
697.14,1.6372,14.372,-Inf,-Inf,0,0,0
700.64,1.6567,14.376,-Inf,-Inf,0,0,0
704.14,1.6768,14.378,-Inf,-Inf,0,0,0
707.64,1.6968,14.379,-Inf,-Inf,0,0,0
711.14,1.7176,14.378,-Inf,-Inf,0,0,0
714.64,1.7392,14.374,-Inf,-Inf,0,0,0
718.14,1.7604,14.368,-Inf,-Inf,0,0,0
721.64,1.7829,14.358,-Inf,-Inf,0,0,0
725.14,1.8059,14.344,-Inf,-Inf,0,0,0
728.64,1.8291,14.323,-Inf,-Inf,0,0,0
732.14,1.8533,14.292,-Inf,-Inf,0,0,0
735.64,1.8798,14.24,-Inf,-Inf,0,0,0
739.14,1.9097,14.139,-Inf,-Inf,0,0,0