File: polyN_optimization/DP600_results/DATA/CH_45_3.csv
Time[s],Displacement[mm],Force[kN],AxStrain_1,AxStrain_2,Thickness[mm],OuterWidth[mm],Diameter[mm]
0.6,0,-0.019569,0,0,1.5223,20,4.9589
4.11,0.000608,0.11972,0.00012999,-0.00020902,0,0,0
7.61,0.000709,0.27485,0.00015199,-0.00033906,0,0,0
11.11,0.000926,0.40086,-0.00013701,2.8e-05,0,0,0
14.61,0.001513,0.52942,0.00016899,3.9999e-05,0,0,0
18.11,0.001672,0.66329,0.00015599,-0.00022202,0,0,0
21.61,0.001669,0.80185,-0.00012201,-3e-06,0,0,0
25.11,0.002595,0.94186,0.0004439,-0.00011601,0,0,0
28.61,0.002731,1.0849,0.00059582,-0.00013901,0,0,0
32.1,0.002986,1.2301,6.5998e-05,-0.00021502,0,0,0
35.6,0.004039,1.372,0.00067177,0.00011299,0,0,0
39.1,0.003847,1.5137,0.00076471,-0.00013201,0,0,0
42.6,0.004291,1.6546,0.00018898,1.7e-05,0,0,0
46.1,0.005638,1.7984,0.00065878,0.00022198,0,0,0
49.6,0.005012,1.9391,0.00080368,-0.00010601,0,0,0
53.1,0.005767,2.0779,0.00040092,0.00010599,0,0,0
56.6,0.00688,2.2183,0.0010355,0.00038693,0,0,0
60.1,0.00634,2.3563,0.00081367,-0.00029504,0,0,0
63.6,0.006983,2.4964,0.00068876,0.00012599,0,0,0
67.11,0.008274,2.6367,0.0011843,0.00035794,0,0,0
70.61,0.007711,2.7783,0.00083065,-5.6002e-05,0,0,0
74.11,0.008615,2.9189,0.00061881,0.00036693,0,0,0
77.61,0.009678,3.0587,0.0013431,0.00043391,0,0,0
81.11,0.009013,3.1969,0.00096953,0.00033095,0,0,0
84.61,0.010659,3.3381,0.00061581,0.00059282,0,0,0
88.11,0.011053,3.475,0.0012802,0.0006288,0,0,0
91.61,0.010408,3.6137,0.00088061,0.00027796,0,0,0
95.11,0.012355,3.7507,0.00088661,0.00066878,0,0,0
98.6,0.012232,3.8877,0.0015418,0.00083765,0,0,0
102.11,0.012041,4.0259,0.0012342,0.00069176,0,0,0
105.61,0.014063,4.1634,0.0013501,0.00098252,0,0,0
109.11,0.013776,4.2999,0.0019182,0.00076071,0,0,0
112.6,0.013809,4.438,0.0012572,0.0010924,0,0,0
116.1,0.01606,4.5743,0.0016207,0.0016876,0,0,0
119.61,0.015266,4.7124,0.0022485,0.0011254,0,0,0
123.1,0.015564,4.846,0.0015548,0.0012243,0,0,0
126.6,0.017915,4.9794,0.0017864,0.0016866,0,0,0
130.1,0.01712,5.1127,0.0021826,0.0011583,0,0,0
133.6,0.017816,5.247,0.0017535,0.0011913,0,0,0
137.1,0.019935,5.3816,0.0022814,0.0015548,0,0,0
140.6,0.019042,5.5147,0.0025787,0.001423,0,0,0
144.1,0.020169,5.6471,0.0020509,0.0015548,0,0,0
147.6,0.021858,5.7834,0.0026784,0.0022485,0,0,0
151.1,0.021031,5.9146,0.0025787,0.0015877,0,0,0
154.6,0.02262,6.0481,0.0022824,0.001985,0,0,0
158.1,0.024144,6.1803,0.0031401,0.0025128,0,0,0
161.6,0.023383,6.3141,0.0029756,0.0019182,0,0,0
165.1,0.025337,6.4479,0.0027442,0.0026784,0,0,0
168.6,0.026463,6.5784,0.0038655,0.0027771,0,0,0
172.1,0.02643,6.7086,0.0035357,0.0023482,0,0,0
175.6,0.028483,6.8394,0.0032726,0.0033384,0,0,0
179.1,0.029179,6.9699,0.00469,0.0036683,0,0,0
182.6,0.029842,7.1019,0.004229,0.0032726,0,0,0
186.1,0.031961,7.23,0.004229,0.0042948,0,0,0
189.6,0.032956,7.358,0.0056122,0.0042958,0,0,0
193.1,0.03491,7.4831,0.0050204,0.0039333,0,0,0
196.6,0.035871,7.6103,0.0054153,0.0054153,0,0,0
200.1,0.037792,7.7346,0.0066667,0.0047567,0,0,0
203.6,0.040342,7.8581,0.0059095,0.0048233,0,0,0
207.1,0.041105,7.9796,0.0069955,0.0062723,0,0,0
210.6,0.044218,8.1011,0.0084076,0.0058121,0,0,0
214.1,0.046934,8.221,0.0074224,0.0062405,0,0,0
217.6,0.048425,8.3393,0.0092937,0.0081467,0,0,0
221.1,0.052829,8.4553,0.010212,0.0074571,0,0,0
224.6,0.055677,8.5729,0.0095889,0.0081804,0,0,0
228.1,0.058262,8.6856,0.012176,0.010116,0,0,0
231.6,0.062932,8.7991,0.012569,0.0095928,0,0,0
235.1,0.066841,8.9079,0.012765,0.011035,0,0,0
238.6,0.07128,9.0139,0.015246,0.012736,0,0,0
242.1,0.074726,9.1184,0.015737,0.012477,0,0,0
245.6,0.080158,9.2229,0.016226,0.014338,0,0,0
249.1,0.085656,9.3243,0.018731,0.01574,0,0,0
252.6,0.089465,9.4234,0.019349,0.016067,0,0,0
256.1,0.096155,9.52,0.02003,0.018052,0,0,0
259.6,0.10149,9.616,0.022266,0.01932,0,0,0
263.1,0.10841,9.7109,0.023109,0.020294,0,0,0
266.6,0.11348,9.8043,0.024498,0.022142,0,0,0
270.1,0.12023,9.8944,0.026081,0.023112,0,0,0
273.6,0.12755,9.9846,0.0275,0.024439,0,0,0
277.1,0.13425,10.073,0.02895,0.026215,0,0,0
280.6,0.14103,10.158,0.030654,0.027567,0,0,0
284.1,0.14766,10.241,0.032806,0.029049,0,0,0
287.6,0.1566,10.324,0.033673,0.03117,0,0,0
291.1,0.16339,10.406,0.035591,0.032579,0,0,0
294.6,0.17154,10.487,0.037314,0.03415,0,0,0
298.1,0.1781,10.564,0.038814,0.036387,0,0,0
301.6,0.1878,10.639,0.040943,0.037824,0,0,0
305.1,0.19516,10.713,0.042469,0.03948,0,0,0
308.6,0.20367,10.788,0.044056,0.042213,0,0,0
312.1,0.21093,10.861,0.045956,0.043007,0,0,0
315.6,0.22053,10.931,0.047348,0.045478,0,0,0
319.1,0.22914,11.001,0.049212,0.047502,0,0,0
322.6,0.23796,11.068,0.050976,0.048859,0,0,0
326.1,0.24601,11.136,0.052802,0.051315,0,0,0
329.6,0.25518,11.202,0.054935,0.052762,0,0,0
333.1,0.26469,11.268,0.056688,0.054927,0,0,0
336.6,0.27433,11.333,0.058907,0.056712,0,0,0
340.1,0.28275,11.395,0.061057,0.058371,0,0,0
343.6,0.29202,11.458,0.062803,0.060865,0,0,0
347.1,0.3016,11.518,0.064635,0.062578,0,0,0
350.6,0.31177,11.577,0.066563,0.064508,0,0,0
354.1,0.32121,11.637,0.068484,0.066769,0,0,0
357.6,0.33072,11.694,0.070279,0.068843,0,0,0
361.1,0.34056,11.75,0.072779,0.07085,0,0,0
364.6,0.35053,11.806,0.074171,0.072699,0,0,0
368.1,0.36093,11.86,0.076293,0.075221,0,0,0
371.6,0.37137,11.915,0.078508,0.077002,0,0,0
375.1,0.38078,11.967,0.080009,0.079449,0,0,0
378.6,0.39118,12.02,0.081723,0.081984,0,0,0
382.1,0.40165,12.07,0.084072,0.083969,0,0,0
385.6,0.41268,12.12,0.085776,0.08655,0,0,0
389.1,0.42322,12.17,0.08775,0.088308,0,0,0
392.6,0.43356,12.219,0.089661,0.090881,0,0,0
396.1,0.4433,12.266,0.091482,0.092696,0,0,0
399.6,0.45459,12.314,0.092607,0.095018,0,0,0
403.1,0.46533,12.361,0.094845,0.096913,0,0,0
406.6,0.47755,12.406,0.096875,0.098897,0,0,0
410.1,0.48759,12.451,0.098441,0.10183,0,0,0
413.6,0.49908,12.497,0.10123,0.1032,0,0,0
417.1,0.50932,12.54,0.1036,0.10574,0,0,0
420.6,0.52191,12.583,0.105,0.1077,0,0,0
424.1,0.53264,12.626,0.10765,0.10972,0,0,0
427.6,0.54506,12.668,0.11,0.11251,0,0,0
431.1,0.5554,12.709,0.11275,0.11455,0,0,0
434.6,0.56716,12.749,0.11499,0.1172,0,0,0
438.1,0.57806,12.789,0.11735,0.11967,0,0,0
441.6,0.59074,12.828,0.12,0.12202,0,0,0
445.1,0.60217,12.867,0.12267,0.12431,0,0,0
448.6,0.61496,12.907,0.12478,0.12731,0,0,0
452.1,0.62579,12.944,0.12738,0.13005,0,0,0
455.6,0.63815,12.982,0.13013,0.13267,0,0,0
459.1,0.65024,13.018,0.13274,0.13547,0,0,0
462.6,0.66266,13.054,0.13517,0.1381,0,0,0
466.1,0.67541,13.09,0.13755,0.14066,0,0,0
469.6,0.6874,13.126,0.13992,0.14388,0,0,0
473.1,0.70015,13.161,0.14322,0.14717,0,0,0
476.6,0.71161,13.195,0.14466,0.14966,0,0,0
480.1,0.72493,13.229,0.14784,0.15296,0,0,0
483.6,0.73742,13.263,0.15081,0.1561,0,0,0
487.1,0.75103,13.296,0.1532,0.1587,0,0,0
490.6,0.76352,13.329,0.15691,0.16217,0,0,0
494.1,0.7768,13.361,0.15981,0.16509,0,0,0
497.6,0.78912,13.393,0.16317,0.16859,0,0,0
501.1,0.8026,13.424,0.16594,0.17083,0,0,0
504.6,0.81585,13.455,0.16941,0.17439,0,0,0
508.1,0.8292,13.485,0.17276,0.17725,0,0,0
511.6,0.8433,13.516,0.17583,0.18049,0,0,0
515.1,0.85606,13.546,0.17842,0.1832,0,0,0
518.6,0.87036,13.575,0.18128,0.186,0,0,0
522.1,0.88291,13.604,0.18446,0.18957,0,0,0
525.6,0.89722,13.633,0.18711,0.19291,0,0,0
529.1,0.9107,13.661,0.19059,0.19648,0,0,0
532.6,0.92521,13.69,0.19419,0.20082,0,0,0
536.1,0.93958,13.717,0.19774,0.20385,0,0,0
539.6,0.95359,13.744,0.20042,0.2073,0,0,0
543.1,0.96826,13.771,0.20394,0.21063,0,0,0
546.6,0.98177,13.796,0.20827,0.21603,0,0,0
550.1,0.99671,13.822,0.21167,0.21776,0,0,0
553.6,1.0107,13.847,0.21475,0.22212,0,0,0
557.1,1.0261,13.872,0.21919,0.22511,0,0,0
560.6,1.0408,13.896,0.22233,0.2293,0,0,0
564.1,1.0559,13.92,0.2268,0.23423,0,0,0
567.6,1.071,13.944,0.23059,0.23682,0,0,0
571.1,1.0852,13.966,0.23483,0.24089,0,0,0
574.6,1.1007,13.99,0.23852,0.24496,0,0,0
578.1,1.1152,14.012,0.24272,0.24892,0,0,0
581.6,1.1309,14.032,0.24671,0.25304,0,0,0
585.1,1.1466,14.054,0.24996,0.25735,0,0,0
588.6,1.1622,14.075,0.25613,0.26144,0,0,0
592.1,1.1783,14.095,0.25992,0.26535,0,0,0
595.6,1.1936,14.116,0.26373,0.27122,0,0,0
599.1,1.2098,14.136,0.26802,0.27596,0,0,0
602.6,1.2258,14.156,0.27388,0.28007,0,0,0
606.1,1.2417,14.174,0.27794,0.28622,0,0,0
609.6,1.2586,14.192,0.28309,0.29025,0,0,0
613.1,1.2747,14.208,0.28717,0.29693,0,0,0
616.6,1.2917,14.226,0.29346,0.3027,0,0,0
620.1,1.3086,14.244,0.29996,0.30818,0,0,0
623.6,1.3257,14.258,-Inf,0.31389,0,0,0
627.1,1.3433,14.274,-Inf,0.31979,0,0,0
630.6,1.36,14.287,-Inf,0.3254,0,0,0
634.1,1.3776,14.302,-Inf,0.33231,0,0,0
637.6,1.3953,14.315,-Inf,0.33856,0,0,0
641.1,1.4125,14.328,-Inf,0.34498,0,0,0
644.6,1.4309,14.34,-Inf,-Inf,0,0,0
648.1,1.4488,14.352,-Inf,-Inf,0,0,0
651.6,1.4672,14.362,-Inf,-Inf,0,0,0
655.1,1.4867,14.37,-Inf,-Inf,0,0,0
658.6,1.5051,14.378,-Inf,-Inf,0,0,0
662.1,1.5248,14.385,-Inf,-Inf,0,0,0
665.6,1.5446,14.391,-Inf,-Inf,0,0,0
669.1,1.564,14.395,-Inf,-Inf,0,0,0
672.6,1.5848,14.397,-Inf,-Inf,0,0,0
676.1,1.6058,14.397,-Inf,-Inf,0,0,0
679.6,1.6266,14.395,-Inf,-Inf,0,0,0
683.1,1.649,14.386,-Inf,-Inf,0,0,0
686.6,1.672,14.368,-Inf,-Inf,0,0,0
689.6,1.6987,14.313,-Inf,-Inf,0,0,0