File: polyN_optimization/DP600_results/DATA/CH_90_3.csv
Time[s],Displacement[mm],Force[kN],AxStrain_1,AxStrain_2,Thickness[mm],OuterWidth[mm],Diameter[mm]
0.64,0,-0.0078792,0,0,1.5254,19.983,4.9262
4.14,0.000394,0.12842,-2.1e-05,-0.00010201,0,0,0
7.64,0.000554,0.26158,0.00029396,-8.2003e-05,0,0,0
11.14,0.000682,0.39485,3.5999e-05,-5.1001e-05,0,0,0
14.64,0.001179,0.52644,-0.00015201,7.8997e-05,0,0,0
18.14,0.001433,0.65814,0.00019898,3.5999e-05,0,0,0
21.64,0.001847,0.80215,0.00010599,4.9999e-05,0,0,0
25.14,0.002456,0.94614,0.00010299,0.00028496,0,0,0
28.64,0.002509,1.0919,-9.9005e-05,6.5998e-05,0,0,0
32.14,0.002923,1.235,0.00038093,0.00019498,0,0,0
35.64,0.004009,1.3797,0.00013599,0.00059882,0,0,0
39.14,0.004006,1.5273,0.00025497,0.00036393,0,0,0
42.64,0.004463,1.6734,0.00039692,0.00048988,0,0,0
46.14,0.005704,1.8143,0.00049988,0.00094955,0,0,0
49.64,0.005578,1.9553,0.00039692,0.00036393,0,0,0
53.14,0.005754,2.0956,0.00069176,0.00059282,0,0,0
56.64,0.007389,2.2394,0.00066878,0.00067177,0,0,0
60.14,0.006956,2.3821,0.0006358,0.00053985,0,0,0
63.64,0.007134,2.5226,0.0006258,0.00070175,0,0,0
67.14,0.008713,2.6621,0.00079069,0.00064579,0,0,0
70.64,0.008313,2.8039,0.00068477,0.00074472,0,0,0
74.14,0.008402,2.9446,0.0006318,0.00067177,0,0,0
77.64,0.010283,3.085,0.00083065,0.00091958,0,0,0
81.14,0.009455,3.2229,0.00078769,0.00056584,0,0,0
84.64,0.009889,3.3641,0.00084364,0.00094256,0,0,0
88.14,0.011733,3.5017,0.00081367,0.0010724,0,0,0
91.64,0.010912,3.6376,0.00072474,0.0006288,0,0,0
95.14,0.011405,3.7733,0.0008906,0.00093656,0,0,0
98.64,0.013679,3.9104,0.0010654,0.0011683,0,0,0
102.14,0.012749,4.0479,0.00096953,0.0010095,0,0,0
105.64,0.01315,4.1857,0.0011014,0.00097253,0,0,0
109.14,0.015176,4.3211,0.0010954,0.0017824,0,0,0
112.64,0.014268,4.4563,0.0010584,0.0011583,0,0,0
116.14,0.015262,4.5924,0.0012243,0.001389,0,0,0
119.64,0.017413,4.7281,0.0012902,0.0017535,0,0,0
123.14,0.016189,4.8623,0.0012572,0.0015548,0,0,0
126.64,0.017149,4.9954,0.0014559,0.0016536,0,0,0
130.14,0.019367,5.1293,0.0017535,0.0023472,0,0,0
133.64,0.018307,5.2619,0.0017864,0.0016207,0,0,0
137.14,0.019102,5.3984,0.0016536,0.002017,0,0,0
140.64,0.021188,5.5326,0.002017,0.0024799,0,0,0
144.14,0.020161,5.667,0.0020509,0.002017,0,0,0
147.64,0.021452,5.8011,0.0018852,0.001984,0,0,0
151.14,0.023108,5.9381,0.002447,0.0025787,0,0,0
154.64,0.022578,6.0753,0.001984,0.0020509,0,0,0
158.14,0.0242,6.2097,0.0021497,0.0025787,0,0,0
161.64,0.025855,6.3414,0.0029417,0.0033384,0,0,0
165.14,0.025624,6.4743,0.0024141,0.0024799,0,0,0
168.64,0.027577,6.6061,0.0025787,0.0030414,0,0,0
172.14,0.028736,6.7391,0.0033713,0.0038984,0,0,0
175.64,0.029298,6.8686,0.0030085,0.0032059,0,0,0
179.14,0.030689,6.9989,0.0033055,0.003734,0,0,0
182.64,0.032046,7.1287,0.0038326,0.0042948,0,0,0
186.14,0.033205,7.2586,0.0035357,0.0036683,0,0,0
189.64,0.034595,7.3854,0.0037669,0.004459,0,0,0
193.14,0.036284,7.5119,0.0049537,0.0054143,0,0,0
196.64,0.038998,7.6369,0.00469,0.0046571,0,0,0
200.14,0.040124,7.7614,0.0050522,0.0057435,0,0,0
203.64,0.04178,7.8831,0.0059085,0.006632,0,0,0
207.14,0.045223,8.0069,0.005481,0.0058429,0,0,0
210.64,0.045918,8.1266,0.0065664,0.0070263,0,0,0
214.14,0.048698,8.2466,0.0074869,0.0080128,0,0,0
217.64,0.053135,8.3637,0.0071256,0.0071583,0,0,0
221.14,0.054525,8.4813,0.0084393,0.0091282,0,0,0
224.64,0.058432,8.5981,0.0091609,0.0097513,0,0,0
228.14,0.062239,8.7129,0.0088666,0.0093254,0,0,0
231.64,0.065285,8.8244,0.010768,0.011586,0,0,0
235.14,0.06939,8.9359,0.01139,0.011782,0,0,0
238.64,0.073263,9.0424,0.011161,0.011618,0,0,0
242.14,0.078792,9.1489,0.013254,0.013873,0,0,0
245.64,0.082534,9.2531,0.013841,0.014266,0,0,0
249.14,0.08707,9.3551,0.013842,0.014592,0,0,0
252.64,0.093393,9.4579,0.016417,0.016776,0,0,0
256.14,0.098061,9.558,0.017297,0.017101,0,0,0
259.64,0.10418,9.6564,0.017688,0.017588,0,0,0
263.14,0.10875,9.7504,0.020221,0.019636,0,0,0
266.64,0.11617,9.8451,0.020545,0.020025,0,0,0
270.14,0.12253,9.9391,0.021098,0.020998,0,0,0
273.64,0.12806,10.032,0.023592,0.023103,0,0,0
277.14,0.13528,10.121,0.024367,0.024041,0,0,0
280.64,0.14173,10.207,0.025334,0.025494,0,0,0
284.14,0.14997,10.293,0.027012,0.02701,0,0,0
287.64,0.15587,10.378,0.027817,0.028363,0,0,0
291.14,0.16381,10.462,0.029329,0.029649,0,0,0
294.64,0.17097,10.543,0.030776,0.031158,0,0,0
298.14,0.1799,10.623,0.032251,0.032602,0,0,0
301.64,0.18689,10.702,0.033724,0.033787,0,0,0
305.14,0.19474,10.779,0.035291,0.035066,0,0,0
308.64,0.20298,10.855,0.03676,0.036854,0,0,0
312.14,0.21212,10.927,0.0381,0.038321,0,0,0
315.64,0.22046,11.002,0.039692,0.039626,0,0,0
319.14,0.22814,11.074,0.041154,0.041152,0,0,0
322.64,0.23659,11.143,0.043154,0.042803,0,0,0
326.14,0.24513,11.211,0.044516,0.044546,0,0,0
329.64,0.25516,11.28,0.046161,0.045717,0,0,0
333.14,0.26327,11.347,0.047898,0.047645,0,0,0
336.64,0.27231,11.413,0.049255,0.049032,0,0,0
340.14,0.28089,11.477,0.050955,0.050608,0,0,0
343.64,0.29152,11.542,0.052872,0.052714,0,0,0
347.14,0.30062,11.604,0.054881,0.054409,0,0,0
350.64,0.31032,11.665,0.056322,0.0561,0,0,0
354.14,0.3185,11.724,0.058854,0.058101,0,0,0
357.64,0.3291,11.783,0.06032,0.059942,0,0,0
361.14,0.33853,11.841,0.061783,0.061718,0,0,0
364.64,0.34926,11.898,0.06399,0.063366,0,0,0
368.14,0.35764,11.955,0.065604,0.065353,0,0,0
371.64,0.3685,12.011,0.067462,0.067058,0,0,0
375.14,0.37757,12.065,0.069627,0.06916,0,0,0
378.64,0.38936,12.119,0.071602,0.071014,0,0,0
382.14,0.3988,12.171,0.073604,0.072923,0,0,0
385.64,0.40952,12.223,0.075632,0.074799,0,0,0
389.14,0.41863,12.273,0.077654,0.07661,0,0,0
392.64,0.42992,12.324,0.079828,0.078817,0,0,0
396.14,0.44015,12.374,0.081813,0.080589,0,0,0
399.64,0.45194,12.422,0.083185,0.082543,0,0,0
403.14,0.4617,12.471,0.085346,0.084674,0,0,0
406.64,0.4726,12.518,0.087503,0.086649,0,0,0
410.14,0.48296,12.565,0.089202,0.08847,0,0,0
413.64,0.49475,12.611,0.09156,0.090739,0,0,0
417.14,0.50578,12.655,0.093946,0.092915,0,0,0
420.64,0.51723,12.7,0.096024,0.094783,0,0,0
424.14,0.52743,12.744,0.098277,0.097099,0,0,0
427.64,0.53875,12.787,0.10044,0.09911,0,0,0
431.14,0.54981,12.829,0.1028,0.10121,0,0,0
434.64,0.5614,12.87,0.1048,0.1041,0,0,0
438.14,0.57302,12.911,0.10706,0.10568,0,0,0
441.64,0.58438,12.952,0.10934,0.10812,0,0,0
445.14,0.59561,12.994,0.11148,0.11059,0,0,0
448.64,0.6066,13.033,0.11367,0.11254,0,0,0
452.14,0.61908,13.072,0.11647,0.11544,0,0,0
455.64,0.63083,13.111,0.11859,0.1177,0,0,0
459.14,0.64351,13.149,0.12121,0.12023,0,0,0
462.64,0.65461,13.186,0.12331,0.12299,0,0,0
466.14,0.66712,13.223,0.12595,0.12562,0,0,0
469.64,0.67811,13.259,0.12883,0.12813,0,0,0
473.14,0.69106,13.295,0.13066,0.12984,0,0,0
476.64,0.70288,13.33,0.13347,0.13283,0,0,0
480.14,0.71639,13.367,0.1359,0.13518,0,0,0
483.64,0.72814,13.401,0.13798,0.13763,0,0,0
487.14,0.74072,13.436,0.14092,0.1408,0,0,0
490.64,0.75281,13.469,0.14345,0.14313,0,0,0
494.14,0.76542,13.502,0.14568,0.14565,0,0,0
497.64,0.77834,13.534,0.14817,0.14814,0,0,0
501.14,0.79102,13.568,0.15136,0.1511,0,0,0
504.64,0.80426,13.599,0.15375,0.15445,0,0,0
508.14,0.81605,13.629,0.15704,0.15732,0,0,0
511.64,0.82939,13.659,0.15978,0.16048,0,0,0
515.14,0.84125,13.691,0.16246,0.16389,0,0,0
518.64,0.85518,13.722,0.16502,0.16694,0,0,0
522.14,0.86777,13.751,0.16796,0.16941,0,0,0
525.64,0.8818,13.781,0.1703,0.17328,0,0,0
529.14,0.89445,13.809,0.17373,0.17631,0,0,0
532.64,0.90799,13.839,0.17709,0.18055,0,0,0
536.14,0.92101,13.867,0.18086,0.18361,0,0,0
539.64,0.93445,13.895,0.18359,0.18697,0,0,0
543.14,0.94855,13.922,0.18664,0.19089,0,0,0
546.64,0.9618,13.949,0.18928,0.19324,0,0,0
550.14,0.9766,13.976,0.19256,0.19675,0,0,0
553.64,0.98911,14.002,0.19735,0.2002,0,0,0
557.14,1.0033,14.028,0.20007,0.20402,0,0,0
560.64,1.0164,14.054,0.20439,0.20709,0,0,0
564.14,1.0308,14.079,0.20873,0.21008,0,0,0
567.64,1.0452,14.104,0.212,0.21439,0,0,0
571.14,1.0594,14.128,0.21596,0.21836,0,0,0
574.64,1.0744,14.152,0.21982,0.22237,0,0,0
578.14,1.088,14.176,0.22517,0.22621,0,0,0
581.64,1.1029,14.199,0.22773,0.22946,0,0,0
585.14,1.1165,14.222,0.23275,0.23382,0,0,0
588.64,1.1316,14.245,0.23658,0.23897,0,0,0
592.14,1.1458,14.267,0.24072,0.24277,0,0,0
595.64,1.1609,14.29,0.24578,0.24668,0,0,0
599.14,1.1765,14.312,0.24925,0.25139,0,0,0
602.64,1.1912,14.333,0.25547,0.25717,0,0,0
606.14,1.2071,14.353,0.25962,0.26085,0,0,0
609.64,1.2217,14.375,0.2642,0.26488,0,0,0
613.14,1.2372,14.393,0.26904,0.26995,0,0,0
616.64,1.2522,14.413,0.27482,0.27627,0,0,0
620.14,1.2679,14.433,0.27856,0.28006,0,0,0
623.64,1.2841,14.451,-Inf,-Inf,0,0,0
627.14,1.2993,14.469,-Inf,-Inf,0,0,0
630.64,1.3159,14.488,-Inf,-Inf,0,0,0
634.14,1.3319,14.505,-Inf,-Inf,0,0,0
637.64,1.348,14.522,-Inf,-Inf,0,0,0
641.14,1.3643,14.538,-Inf,-Inf,0,0,0
644.64,1.3801,14.555,-Inf,-Inf,0,0,0
648.14,1.3968,14.57,-Inf,-Inf,0,0,0
651.64,1.4134,14.586,-Inf,-Inf,0,0,0
655.14,1.4304,14.6,-Inf,-Inf,0,0,0
658.64,1.4479,14.615,-Inf,-Inf,0,0,0
662.14,1.4648,14.628,-Inf,-Inf,0,0,0
665.64,1.4827,14.641,-Inf,-Inf,0,0,0
669.14,1.5002,14.654,-Inf,-Inf,0,0,0
672.64,1.5178,14.666,-Inf,-Inf,0,0,0
676.14,1.5364,14.677,-Inf,-Inf,0,0,0
679.64,1.554,14.688,-Inf,-Inf,0,0,0
683.14,1.5727,14.697,-Inf,-Inf,0,0,0
686.64,1.5915,14.705,-Inf,-Inf,0,0,0
690.14,1.6095,14.713,-Inf,-Inf,0,0,0
693.64,1.629,14.72,-Inf,-Inf,0,0,0
697.14,1.6482,14.725,-Inf,-Inf,0,0,0
700.64,1.6674,14.729,-Inf,-Inf,0,0,0
704.14,1.6878,14.732,-Inf,-Inf,0,0,0
707.64,1.7078,14.733,-Inf,-Inf,0,0,0
711.14,1.7284,14.734,-Inf,-Inf,0,0,0
714.64,1.7505,14.73,-Inf,-Inf,0,0,0
718.14,1.7717,14.724,-Inf,-Inf,0,0,0
721.64,1.7938,14.715,-Inf,-Inf,0,0,0
725.14,1.8172,14.701,-Inf,-Inf,0,0,0
728.64,1.8403,14.68,-Inf,-Inf,0,0,0
732.14,1.8644,14.647,-Inf,-Inf,0,0,0
735.64,1.891,14.591,-Inf,-Inf,0,0,0
738.64,1.9176,14.488,-Inf,-Inf,0,0,0