File: polyN_optimization/DP600_results/DATA/CH_90_1.csv
Time[s],Displacement[mm],Force[kN],AxStrain_1,AxStrain_2,Thickness[mm],OuterWidth[mm],Diameter[mm]
0.59,0,-0.018201,0,0,1.5207,20,4.8394
4.09,0.000203,0.10244,-4.4001e-05,2.9e-05,0,0,0
7.59,0.000365,0.25885,-0.00015901,2.8e-05,0,0,0
11.09,0.000599,0.39043,-0.00020402,7.9997e-05,0,0,0
14.59,0.001296,0.51928,-1e-05,0.00019798,0,0,0
18.09,0.001433,0.64915,0.00017199,0.00028096,0,0,0
21.59,0.001721,0.78871,-0.00010901,0.00018198,0,0,0
25.09,0.002506,0.92986,0.00022797,0.00026496,0,0,0
28.59,0.002748,1.0707,-3e-06,0.00052586,0,0,0
32.09,0.00293,1.2163,0.00013299,0.00043391,0,0,0
35.59,0.003996,1.3616,0.00028496,0.00028796,0,0,0
39.09,0.004251,1.5094,0.00022797,0.00071774,0,0,0
42.59,0.004261,1.652,0.00034794,0.00049988,0,0,0
46.09,0.005638,1.7933,0.00039692,0.00053286,0,0,0
49.59,0.00574,1.9346,0.00040092,0.00065878,0,0,0
53.09,0.005671,2.0774,0.00014599,0.00066178,0,0,0
56.59,0.007154,2.2196,0.00049288,0.00064579,0,0,0
60.09,0.007147,2.3594,0.00034094,0.00075771,0,0,0
63.59,0.007171,2.4964,0.00033794,0.0006318,0,0,0
67.09,0.008541,2.6363,0.00050987,0.00071175,0,0,0
70.59,0.008564,2.7746,0.0006358,0.00074472,0,0,0
74.08,0.008528,2.9157,0.0004399,0.00069876,0,0,0
77.58,0.010322,3.055,0.00060282,0.00065878,0,0,0
81.08,0.009766,3.1941,0.00070175,0.00075072,0,0,0
84.59,0.010008,3.3317,0.00049988,0.0006358,0,0,0
88.09,0.011931,3.4693,0.00057883,0.00091358,0,0,0
91.59,0.011213,3.6047,0.00057883,0.0009995,0,0,0
95.09,0.011726,3.7403,0.00069876,0.0010355,0,0,0
98.58,0.013543,3.8777,0.00081767,0.0011284,0,0,0
102.08,0.012745,4.0151,0.00084065,0.0010624,0,0,0
105.59,0.013533,4.1501,0.00088361,0.0012542,0,0,0
109.08,0.015291,4.2827,0.0014559,0.0012672,0,0,0
112.58,0.014434,4.4153,0.00082766,0.0013231,0,0,0
116.08,0.015526,4.5486,0.00079468,0.0012572,0,0,0
119.58,0.017049,4.6841,0.0012902,0.0016866,0,0,0
123.08,0.015957,4.8163,0.00099251,0.0015877,0,0,0
126.58,0.017744,4.9487,0.00092657,0.0015218,0,0,0
130.09,0.019002,5.0797,0.0016207,0.0019511,0,0,0
133.59,0.018208,5.2106,0.0012243,0.0017864,0,0,0
137.09,0.019962,5.3407,0.0012243,0.0017195,0,0,0
140.59,0.020889,5.4743,0.0018523,0.0019182,0,0,0
144.09,0.020095,5.6079,0.0014889,0.001984,0,0,0
147.59,0.021982,5.7421,0.0017535,0.001984,0,0,0
151.09,0.023008,5.8743,0.0021826,0.0023812,0,0,0
154.59,0.022776,6.0044,0.0017864,0.002018,0,0,0
158.09,0.024796,6.1341,0.0019182,0.0023143,0,0,0
161.59,0.025557,6.2671,0.002447,0.00281,0,0,0
165.09,0.025822,6.4006,0.0022485,0.0025787,0,0,0
168.59,0.027874,6.5317,0.0026116,0.003173,0,0,0
172.08,0.028834,6.6594,0.0026784,0.0033384,0,0,0
175.59,0.029662,6.7886,0.0025787,0.0031401,0,0,0
179.09,0.031152,6.9169,0.0031072,0.0037011,0,0,0
182.59,0.032244,7.0459,0.003173,0.0039323,0,0,0
186.08,0.033569,7.1719,0.0030743,0.0036015,0,0,0
189.59,0.03476,7.2981,0.0038984,0.0044262,0,0,0
193.09,0.036846,7.4237,0.0038326,0.0048214,0,0,0
196.59,0.039031,7.5476,0.0037669,0.0047557,0,0,0
200.08,0.039925,7.6691,0.0049209,0.0058757,0,0,0
203.58,0.04254,7.7903,0.004888,0.0060397,0,0,0
207.08,0.045155,7.9101,0.0049209,0.0059085,0,0,0
210.59,0.04595,8.0324,0.0062047,0.0073886,0,0,0
214.08,0.050022,8.15,0.0059413,0.007059,0,0,0
217.58,0.052505,8.2663,0.006468,0.0071256,0,0,0
221.08,0.054557,8.3789,0.0079791,0.0089647,0,0,0
224.59,0.058993,8.4929,0.0073559,0.0088983,0,0,0
228.08,0.061774,8.6071,0.0079801,0.0093581,0,0,0
231.58,0.065615,8.7179,0.0096859,0.011258,0,0,0
235.08,0.068958,8.8261,0.008931,0.010964,0,0,0
238.58,0.073229,8.9329,0.010211,0.011586,0,0,0
242.08,0.078393,9.0361,0.011586,0.013613,0,0,0
245.58,0.081571,9.1419,0.011094,0.01358,0,0,0
249.08,0.087531,9.2436,0.012502,0.014461,0,0,0
252.58,0.092464,9.3457,0.014037,0.01658,0,0,0
256.08,0.09743,9.4453,0.013711,0.016482,0,0,0
259.58,0.10302,9.5454,0.015439,0.017817,0,0,0
263.08,0.10882,9.6459,0.016938,0.019766,0,0,0
266.58,0.1163,9.7431,0.017069,0.020156,0,0,0
270.08,0.12173,9.8364,0.018856,0.021291,0,0,0
273.58,0.12858,9.9284,0.020156,0.023362,0,0,0
277.08,0.13514,10.019,0.020804,0.023976,0,0,0
280.58,0.14278,10.111,0.022262,0.025269,0,0,0
284.08,0.15023,10.197,0.023782,0.027236,0,0,0
287.58,0.15633,10.282,0.024945,0.028266,0,0,0
291.08,0.16437,10.364,0.026107,0.029553,0,0,0
294.58,0.17159,10.446,0.027428,0.03119,0,0,0
298.08,0.18072,10.526,0.028684,0.032825,0,0,0
301.58,0.18698,10.606,0.030163,0.034043,0,0,0
305.08,0.19599,10.683,0.031446,0.035546,0,0,0
308.58,0.20373,10.759,0.032698,0.036918,0,0,0
312.08,0.2133,10.834,0.03433,0.038545,0,0,0
315.58,0.22102,10.906,0.03564,0.040009,0,0,0
319.08,0.22916,10.976,0.036726,0.041789,0,0,0
322.58,0.23747,11.047,0.038607,0.043026,0,0,0
326.08,0.24677,11.115,0.040008,0.044833,0,0,0
329.58,0.25581,11.184,0.041184,0.046256,0,0,0
333.08,0.26442,11.249,0.042962,0.047867,0,0,0
336.58,0.27296,11.315,0.044388,0.049853,0,0,0
340.08,0.2819,11.38,0.045812,0.050986,0,0,0
343.58,0.29206,11.443,0.047802,0.052998,0,0,0
347.08,0.3013,11.507,0.048969,0.054755,0,0,0
350.58,0.3107,11.568,0.050797,0.056571,0,0,0
354.08,0.31974,11.626,0.052683,0.058227,0,0,0
357.58,0.33004,11.683,0.054409,0.060257,0,0,0
361.08,0.33951,11.74,0.056225,0.062032,0,0,0
364.58,0.34967,11.796,0.057726,0.063772,0,0,0
368.08,0.35828,11.85,0.059661,0.06576,0,0,0
371.58,0.36864,11.905,0.061376,0.06771,0,0,0
375.08,0.37808,11.958,0.062932,0.069317,0,0,0
378.58,0.38907,12.01,0.064826,0.071324,0,0,0
382.08,0.3986,12.062,0.066717,0.073264,0,0,0
385.58,0.40847,12.112,0.068697,0.075108,0,0,0
389.08,0.41781,12.162,0.070766,0.076827,0,0,0
392.58,0.42897,12.212,0.072492,0.07897,0,0,0
396.08,0.4391,12.26,0.074552,0.081111,0,0,0
399.58,0.45025,12.309,0.076455,0.082788,0,0,0
403.08,0.45979,12.356,0.078538,0.084828,0,0,0
406.58,0.47048,12.404,0.080251,0.086773,0,0,0
410.08,0.48108,12.45,0.081991,0.088532,0,0,0
413.58,0.4927,12.496,0.084246,0.09056,0,0,0
417.08,0.50395,12.541,0.086131,0.092585,0,0,0
420.58,0.51511,12.587,0.088406,0.094725,0,0,0
424.08,0.52547,12.63,0.090767,0.096951,0,0,0
427.58,0.53646,12.673,0.092972,0.098812,0,0,0
431.08,0.54819,12.715,0.095472,0.10085,0,0,0
434.58,0.55981,12.758,0.097577,0.10345,0,0,0
438.08,0.57176,12.799,0.099916,0.10574,0,0,0
441.58,0.58229,12.84,0.10198,0.10807,0,0,0
445.08,0.59424,12.88,0.10419,0.11047,0,0,0
448.58,0.60493,12.918,0.10652,0.11284,0,0,0
452.08,0.61768,12.958,0.1088,0.1155,0,0,0
455.58,0.62903,12.996,0.11144,0.11788,0,0,0
459.08,0.64191,13.035,0.11399,0.12024,0,0,0
462.58,0.65247,13.073,0.11685,0.12317,0,0,0
466.08,0.66512,13.109,0.11888,0.12559,0,0,0
469.58,0.67624,13.146,0.12164,0.12831,0,0,0
473.08,0.68939,13.182,0.12389,0.13115,0,0,0
476.58,0.70117,13.218,0.12646,0.13342,0,0,0
480.08,0.71395,13.252,0.12949,0.13614,0,0,0
483.58,0.72561,13.288,0.13121,0.13882,0,0,0
487.08,0.73812,13.323,0.13391,0.1415,0,0,0
490.58,0.75044,13.356,0.13709,0.14416,0,0,0
494.08,0.76325,13.389,0.13902,0.14657,0,0,0
497.58,0.77653,13.422,0.1423,0.1496,0,0,0
501.08,0.78894,13.455,0.14473,0.15213,0,0,0
504.58,0.80229,13.487,0.14739,0.1548,0,0,0
508.08,0.81391,13.517,0.15067,0.15769,0,0,0
511.58,0.82718,13.549,0.15323,0.16085,0,0,0
515.08,0.83973,13.58,0.15601,0.16353,0,0,0
518.58,0.8534,13.61,0.15904,0.16647,0,0,0
522.08,0.86631,13.64,0.16197,0.16936,0,0,0
525.58,0.88015,13.669,0.16453,0.1722,0,0,0
529.08,0.89257,13.698,0.16781,0.17529,0,0,0
532.58,0.90598,13.728,0.17105,0.17887,0,0,0
536.08,0.91982,13.757,0.17448,0.18194,0,0,0
539.58,0.93336,13.786,0.17734,0.18549,0,0,0
543.08,0.94782,13.813,0.18002,0.18879,0,0,0
546.58,0.96103,13.841,0.18452,0.19188,0,0,0
550.08,0.9756,13.867,0.18749,0.19554,0,0,0
553.58,0.98878,13.894,0.19031,0.19915,0,0,0
557.08,1.003,13.919,0.19433,0.20248,0,0,0
560.58,1.0167,13.946,0.19743,0.20559,0,0,0
564.08,1.0308,13.971,0.20066,0.20957,0,0,0
567.58,1.0456,13.997,0.20431,0.21295,0,0,0
571.08,1.0599,14.021,0.20757,0.21596,0,0,0
574.58,1.075,14.045,0.21168,0.21985,0,0,0
578.08,1.0887,14.07,0.21481,0.22346,0,0,0
581.58,1.1036,14.094,0.21899,0.22763,0,0,0
585.08,1.1178,14.115,0.22324,0.23042,0,0,0
588.58,1.1326,14.139,0.22702,0.23515,0,0,0
592.08,1.1476,14.162,0.23131,0.23904,0,0,0
595.58,1.1621,14.183,0.23527,0.24348,0,0,0
599.08,1.1779,14.205,0.23971,0.24771,0,0,0
602.58,1.1927,14.227,0.24467,0.25157,0,0,0
606.08,1.2088,14.249,0.24759,0.25558,0,0,0
609.58,1.2241,14.268,0.25216,0.25996,0,0,0
613.08,1.2393,14.289,0.25624,0.26363,0,0,0
616.58,1.2551,14.309,0.26122,0.26827,0,0,0
620.08,1.2704,14.327,0.26585,0.27259,0,0,0
623.58,1.287,14.347,0.27028,0.27647,0,0,0
627.08,1.3026,14.364,0.27495,0.28148,0,0,0
630.58,1.3189,14.383,0.27981,0.28612,0,0,0
634.08,1.3351,14.4,0.28545,0.29107,0,0,0
637.58,1.351,14.417,0.29064,0.29584,0,0,0
641.08,1.3674,14.433,0.29558,0.30019,0,0,0
644.58,1.3835,14.449,0.30157,0.3053,0,0,0
648.08,1.4004,14.466,0.30724,0.31055,0,0,0
651.58,1.417,14.481,0.31246,0.31558,0,0,0
655.08,1.4339,14.495,0.31818,0.32112,0,0,0
658.58,1.4516,14.51,0.32421,0.32641,0,0,0
662.08,1.4685,14.523,0.33034,0.33222,0,0,0
665.58,1.4861,14.536,0.33682,0.33833,0,0,0
669.08,1.5038,14.548,0.34363,0.3445,0,0,0
672.58,1.5211,14.56,0.34934,0.34974,0,0,0
676.08,1.5396,14.571,0.35586,0.35569,0,0,0
679.58,1.5574,14.581,0.36109,0.36279,0,0,0
683.08,1.5757,14.591,0.36922,0.36922,0,0,0
686.58,1.5948,14.598,0.37559,0.37608,0,0,0
690.08,1.6132,14.604,0.38399,0.38321,0,0,0
693.58,1.6326,14.611,0.39232,0.38926,0,0,0
697.08,1.6525,14.614,0.39967,0.39739,0,0,0
700.58,1.6719,14.616,-Inf,0.40639,0,0,0
704.08,1.6928,14.614,-Inf,0.41351,0,0,0
707.58,1.7125,14.611,-Inf,0.42301,0,0,0
711.08,1.735,14.599,-Inf,0.43225,0,0,0
714.58,1.758,14.576,-Inf,0.44183,0,0,0
718.08,1.7833,14.539,-Inf,0.45303,0,0,0
721.58,1.8125,14.444,-Inf,-Inf,0,0,0
723.58,1.8308,14.359,-Inf,-Inf,0,0,0