File: polyN_optimization/DP600_results/DATA/NT20_90_1.csv
Time[s],Displacement[mm],Force[kN],AxStrain_1,AxStrain_2,Thickness[mm],OuterWidth[mm],InnerWidth[mm]
0.63,0,-0.016168,0,0,1.5223,20,19.943
3.63,0.000476,0.07671,0.00017299,0,0,0,0
6.63,0.000678,0.21243,0.00010199,0,0,0,0
9.63,0.001224,0.32114,5.7998e-05,0,0,0,0
12.63,0.001362,0.43157,5e-06,0,0,0,0
15.63,0.002293,0.54085,0.00030495,0,0,0,0
18.63,0.002472,0.651,-1.3e-05,0,0,0,0
21.63,0.003094,0.76757,0.00012299,0,0,0,0
24.63,0.004132,0.88857,-3e-06,0,0,0,0
27.63,0.004425,1.0087,0.00024497,0,0,0,0
30.63,0.004605,1.1281,0.00022198,0,0,0,0
33.63,0.005451,1.2509,0.00017199,0,0,0,0
36.63,0.006512,1.3717,0.00035394,0,0,0,0
39.63,0.006066,1.4909,0.00030095,0,0,0,0
42.63,0.006461,1.6126,0.00011599,0,0,0,0
45.63,0.008066,1.7324,0.00024797,0,0,0,0
48.63,0.008184,1.8506,0.00041991,0,0,0,0
51.63,0.007999,1.9703,0.00033794,0,0,0,0
54.63,0.009477,2.0904,0.00041092,0,0,0,0
57.63,0.011214,2.2083,0.00056584,0,0,0,0
60.63,0.010222,2.3279,0.00061881,0,0,0,0
63.63,0.010916,2.446,0.00048288,0,0,0,0
66.63,0.01357,2.5649,0.00035394,0,0,0,0
69.63,0.013179,2.6856,0.0006358,0,0,0,0
72.63,0.01245,2.804,0.0004569,0,0,0,0
75.63,0.014593,2.9206,0.0004569,0,0,0,0
78.63,0.015372,3.0403,0.00058883,0,0,0,0
81.63,0.014259,3.1577,0.00067477,0,0,0,0
84.63,0.015625,3.2721,0.00041092,0,0,0,0
87.63,0.017801,3.3886,0.00073173,0,0,0,0
90.63,0.017517,3.5054,0.00087062,0,0,0,0
93.63,0.017183,3.6191,0.00071474,0,0,0,0
96.63,0.0199,3.7351,0.00073473,0,0,0,0
99.63,0.020858,3.8493,0.00087062,0,0,0,0
102.63,0.020102,3.9636,0.00097652,0,0,0,0
105.63,0.021869,4.0786,0.0007747,0,0,0,0
108.63,0.023157,4.1913,0.0010195,0,0,0,0
111.63,0.023306,4.3033,0.0010584,0,0,0,0
114.63,0.024201,4.4169,0.0008936,0,0,0,0
117.63,0.026618,4.5273,0.00099251,0,0,0,0
120.63,0.027612,4.6361,0.0016207,0,0,0,0
123.63,0.027942,4.7461,0.0013231,0,0,0,0
126.63,0.03006,4.8543,0.0012902,0,0,0,0
129.63,0.031485,4.9613,0.0018193,0,0,0,0
132.63,0.032777,5.0709,0.0016536,0,0,0,0
135.63,0.034859,5.178,0.0015218,0,0,0,0
138.63,0.036648,5.2834,0.0019182,0,0,0,0
141.63,0.038865,5.3876,0.0023472,0,0,0,0
144.63,0.042735,5.4924,0.0019511,0,0,0,0
147.63,0.043958,5.5931,0.0023143,0,0,0,0
150.63,0.046109,5.6959,0.0032059,0,0,0,0
153.63,0.051004,5.795,0.0030743,0,0,0,0
156.63,0.054446,5.8906,0.0032387,0,0,0,0
159.63,0.056961,5.9879,0.0042619,0,0,0,0
162.63,0.062453,6.081,0.004459,0,0,0,0
165.63,0.066888,6.172,0.0042948,0,0,0,0
168.63,0.071649,6.2621,0.0049865,0,0,0,0
171.63,0.076881,6.3479,0.0064343,0,0,0,0
174.63,0.080951,6.4321,0.0060069,0,0,0,0
177.63,0.087732,6.5156,0.0062375,0,0,0,0
180.63,0.094415,6.5963,0.0083074,0,0,0,0
183.63,0.10074,6.6736,0.0080455,0,0,0,0
186.63,0.10818,6.7511,0.0079136,0,0,0,0
189.63,0.11377,6.8256,0.0093581,0,0,0,0
192.63,0.12198,6.8983,0.010374,0,0,0,0
195.63,0.13002,6.9706,0.0097186,0,0,0,0
198.63,0.13743,7.0403,0.010734,0,0,0,0
201.63,0.14616,7.1089,0.012371,0,0,0,0
204.63,0.15294,7.1769,0.012469,0,0,0,0
207.63,0.16178,7.2427,0.012305,0,0,0,0
210.63,0.16989,7.3066,0.014037,0,0,0,0
213.63,0.17929,7.3716,0.01482,0,0,0,0
216.63,0.18932,7.434,0.014298,0,0,0,0
219.63,0.19746,7.4949,0.015668,0,0,0,0
222.63,0.2073,7.5566,0.017263,0,0,0,0
225.63,0.21583,7.6153,0.017004,0,0,0,0
228.63,0.22682,7.6726,0.017588,0,0,0,0
231.63,0.23612,7.7293,0.019344,0,0,0,0
234.63,0.24748,7.7847,0.019668,0,0,0,0
237.63,0.25757,7.8383,0.019831,0,0,0,0
240.63,0.26749,7.8919,0.021064,0,0,0,0
243.63,0.27782,7.9444,0.022003,0,0,0,0
246.63,0.28745,7.9953,0.022554,0,0,0,0
249.63,0.29929,8.0463,0.023168,0,0,0,0
252.63,0.30926,8.0957,0.02459,0,0,0,0
255.63,0.32193,8.1446,0.025011,0,0,0,0
258.63,0.33252,8.1926,0.026139,0,0,0,0
261.63,0.34526,8.2399,0.026914,0,0,0,0
264.63,0.35552,8.2856,0.027848,0,0,0,0
267.63,0.36751,8.3316,0.028717,0,0,0,0
270.63,0.37833,8.376,0.029745,0,0,0,0
273.63,0.39121,8.4193,0.030613,0,0,0,0
276.63,0.40293,8.4623,0.031382,0,0,0,0
279.63,0.41604,8.5047,0.032441,0,0,0,0
282.63,0.42835,8.5456,0.033562,0,0,0,0
285.63,0.44146,8.5866,0.034298,0,0,0,0
288.63,0.45391,8.6259,0.035545,0,0,0,0
291.63,0.46681,8.6653,0.036471,0,0,0,0
294.63,0.4788,8.7043,0.037301,0,0,0,0
297.63,0.49197,8.7419,0.03813,0,0,0,0
300.63,0.50498,8.7783,0.039594,0,0,0,0
303.63,0.51851,8.8149,0.040389,0,0,0,0
306.63,0.53182,8.8499,0.041502,0,0,0,0
309.63,0.54568,8.8849,0.04258,0,0,0,0
312.63,0.55905,8.9187,0.043944,0,0,0,0
315.63,0.57315,8.9527,0.045116,0,0,0,0
318.63,0.58639,8.9851,0.046128,0,0,0,0
321.63,0.60002,9.0177,0.047423,0,0,0,0
324.63,0.61343,9.0497,0.048496,0,0,0,0
327.63,0.62762,9.0811,0.049631,0,0,0,0
330.63,0.6409,9.1117,0.050827,0,0,0,0
333.63,0.65582,9.1427,0.05221,0,0,0,0
336.63,0.66969,9.1721,0.053341,0,0,0,0
339.63,0.68532,9.2017,0.054626,0,0,0,0
342.63,0.69903,9.2307,0.055974,0,0,0,0
345.63,0.71468,9.2574,0.057412,0,0,0,0
348.63,0.72862,9.2847,0.058381,0,0,0,0
351.63,0.74451,9.3117,0.059754,0,0,0,0
354.63,0.75815,9.3389,0.061001,0,0,0,0
357.63,0.77404,9.3647,0.062246,0,0,0,0
360.63,0.78768,9.3897,0.063707,0,0,0,0
363.63,0.80363,9.4149,0.065197,0,0,0,0
366.63,0.81776,9.4394,0.066313,0,0,0,0
369.63,0.83369,9.4627,0.06752,0,0,0,0
372.63,0.84822,9.487,0.069158,0,0,0,0
375.63,0.86437,9.5094,0.070795,0,0,0,0
378.63,0.87959,9.532,0.071842,0,0,0,0
381.63,0.89538,9.5547,0.073352,0,0,0,0
384.63,0.91134,9.5764,0.075226,0,0,0,0
387.63,0.92692,9.5967,0.076638,0,0,0,0
390.63,0.94331,9.6187,0.077833,0,0,0,0
393.63,0.95847,9.6376,0.079302,0,0,0,0
396.63,0.97574,9.658,0.081104,0,0,0,0
399.63,0.99084,9.678,0.082752,0,0,0,0
402.63,1.0077,9.6969,0.084244,0,0,0,0
405.63,1.0233,9.7156,0.085643,0,0,0,0
408.63,1.0403,9.7343,0.087707,0,0,0,0
411.63,1.0556,9.7523,0.089494,0,0,0,0
414.63,1.0724,9.7696,0.090584,0,0,0,0
417.63,1.0889,9.7863,0.092396,0,0,0,0
420.63,1.105,9.8033,0.094356,0,0,0,0
423.63,1.1222,9.8189,0.096252,0,0,0,0
426.63,1.138,9.8353,0.097725,0,0,0,0
429.63,1.1558,9.8503,0.099674,0,0,0,0
432.63,1.1715,9.8657,0.10129,0,0,0,0
435.63,1.1893,9.8797,0.10332,0,0,0,0
438.63,1.2054,9.8947,0.10508,0,0,0,0
441.63,1.2232,9.9084,0.1066,0,0,0,0
444.63,1.2406,9.922,0.10904,0,0,0,0
447.63,1.2577,9.935,0.111,0,0,0,0
450.63,1.2758,9.948,0.11265,0,0,0,0
453.63,1.2923,9.9596,0.11457,0,0,0,0
456.63,1.3108,9.972,0.11684,0,0,0,0
459.63,1.3274,9.984,0.11882,0,0,0,0
462.63,1.3457,9.995,0.12102,0,0,0,0
465.63,1.3627,10.006,0.12313,0,0,0,0
468.63,1.3806,10.016,0.125,0,0,0,0
471.63,1.3983,10.026,0.12742,0,0,0,0
474.63,1.4156,10.036,0.12969,0,0,0,0
477.63,1.4345,10.046,0.13176,0,0,0,0
480.63,1.4514,10.055,0.1341,0,0,0,0
483.63,1.4702,10.064,0.13621,0,0,0,0
486.63,1.4874,10.072,0.13887,0,0,0,0
489.63,1.506,10.08,0.14134,0,0,0,0
492.63,1.5244,10.087,0.14413,0,0,0,0
495.63,1.5418,10.094,0.14659,0,0,0,0
498.63,1.561,10.101,0.14904,0,0,0,0
501.63,1.5782,10.108,0.15169,0,0,0,0
504.63,1.5976,10.114,0.15402,0,0,0,0
507.63,1.6151,10.119,0.15646,0,0,0,0
510.63,1.6338,10.125,0.15957,0,0,0,0
513.63,1.6527,10.13,0.16253,0,0,0,0
516.63,1.6704,10.134,0.16523,0,0,0,0
519.63,1.6901,10.139,0.16789,0,0,0,0
522.63,1.7082,10.143,0.17057,0,0,0,0
525.63,1.7282,10.147,0.17411,0,0,0,0
528.63,1.7471,10.15,0.17653,0,0,0,0
531.63,1.7658,10.153,0.17897,0,0,0,0
534.63,1.7856,10.155,0.18317,0,0,0,0
537.63,1.8042,10.157,0.18644,0,0,0,0
540.63,1.8242,10.158,0.1896,0,0,0,0
543.63,1.8431,10.16,0.19299,0,0,0,0
546.63,1.8627,10.161,0.19604,0,0,0,0
549.63,1.8824,10.161,0.1997,0,0,0,0
552.63,1.9012,10.161,0.2032,0,0,0,0
555.63,1.9217,10.16,0.20676,0,0,0,0
558.63,1.941,10.159,0.21057,0,0,0,0
561.63,1.9605,10.158,0.21424,0,0,0,0
564.63,1.9807,10.157,0.21808,0,0,0,0
567.63,2,10.154,0.22214,0,0,0,0
570.63,2.0208,10.152,0.2268,0,0,0,0
573.63,2.0401,10.148,0.23083,0,0,0,0
576.63,2.0601,10.144,0.23502,0,0,0,0
579.63,2.0805,10.14,0.23923,0,0,0,0
582.63,2.0998,10.136,0.24352,0,0,0,0
585.63,2.1208,10.131,0.2479,0,0,0,0
588.63,2.1403,10.125,0.25259,0,0,0,0
591.63,2.1605,10.119,0.25777,0,0,0,0
594.63,2.1815,10.113,0.26216,0,0,0,0
597.63,2.2013,10.106,0.26747,0,0,0,0
600.63,2.2225,10.097,0.27189,0,0,0,0
603.63,2.2426,10.089,0.278,0,0,0,0
606.63,2.2629,10.08,0.28278,0,0,0,0
609.63,2.2843,10.07,0.2889,0,0,0,0
612.62,2.3039,10.061,0.29422,0,0,0,0
615.63,2.325,10.05,0.30014,0,0,0,0
618.62,2.3457,10.038,0.30565,0,0,0,0
621.62,2.3655,10.026,0.31209,0,0,0,0
624.62,2.3869,10.014,0.31791,0,0,0,0
627.63,2.4068,10,0.32521,0,0,0,0
630.62,2.4279,9.9863,0.33148,0,0,0,0
633.62,2.4491,9.9713,0.33787,0,0,0,0
636.62,2.4689,9.956,0.34416,0,0,0,0
639.63,2.4908,9.9397,0.3511,0,0,0,0
642.62,2.5115,9.9227,0.35763,0,0,0,0
645.62,2.5323,9.9037,0.36478,0,0,0,0
648.62,2.5542,9.8847,0.37239,0,0,0,0
651.62,2.5742,9.8647,0.37873,0,0,0,0
654.62,2.5964,9.843,0.3863,0,0,0,0
657.62,2.618,9.8211,0.39501,0,0,0,0
660.62,2.6382,9.798,0.40279,0,0,0,0
663.62,2.6609,9.773,0.41147,0,0,0,0
666.62,2.6815,9.7471,0.42025,0,0,0,0
669.62,2.7029,9.7197,0.42891,0,0,0,0
672.62,2.7257,9.6904,0.43722,0,0,0,0
675.62,2.7466,9.6601,0.44599,0,0,0,0
678.62,2.7688,9.6271,0.45601,0,0,0,0
681.62,2.7912,9.5926,0.46564,0,0,0,0
684.62,2.8121,9.5561,0.4747,0,0,0,0
687.62,2.8352,9.5177,0.4835,0,0,0,0
690.62,2.8572,9.4773,0.49299,0,0,0,0
693.62,2.8784,9.4329,0.50265,0,0,0,0
696.62,2.9015,9.3871,0.51353,0,0,0,0
699.62,2.9235,9.338,0.52379,0,0,0,0
702.62,2.9461,9.2846,0.53392,0,0,0,0
705.62,2.97,9.2264,0.54289,0,0,0,0
708.62,2.9923,9.1653,0.55442,0,0,0,0
711.62,3.0228,9.0843,0.56932,0,0,0,0