File: polyN_optimization/DP600_results/DATA/NT20_00_3.csv
Time[s],Displacement[mm],Force[kN],AxStrain_1,AxStrain_2,Thickness[mm],OuterWidth[mm],InnerWidth[mm]
0.62,0,-0.018675,0,0,1.5309,20,10
3.62,0.00061,0.078705,0.00028496,0,0,0,0
6.62,0.000893,0.23685,0.00041991,0,0,0,0
9.62,0.001146,0.348,0.00027296,0,0,0,0
12.62,0.002063,0.45871,0.00012499,0,0,0,0
15.62,0.002791,0.56756,0.00039092,0,0,0,0
18.62,0.002533,0.67914,0.00025197,0,0,0,0
21.62,0.002936,0.79971,0.00015899,0,0,0,0
24.62,0.004029,0.92071,0.00026197,0,0,0,0
27.62,0.004797,1.0404,0.00029796,0,0,0,0
30.62,0.004459,1.1634,0.00029796,0,0,0,0
33.62,0.005108,1.287,0.00020198,0,0,0,0
36.62,0.006661,1.4084,0.00016199,0,0,0,0
39.62,0.006568,1.5324,0.00061181,0,0,0,0
42.62,0.006485,1.6543,0.00033794,0,0,0,0
45.62,0.007925,1.7751,0.00039692,0,0,0,0
48.62,0.009193,1.8981,0.00071774,0,0,0,0
51.62,0.008303,2.019,0.00060582,0,0,0,0
54.62,0.009452,2.1371,0.00074772,0,0,0,0
57.62,0.011501,2.2596,0.00048288,0,0,0,0
60.62,0.010988,2.3791,0.00074472,0,0,0,0
63.62,0.010822,2.5004,0.00068876,0,0,0,0
66.62,0.012948,2.6196,0.00057883,0,0,0,0
69.62,0.013994,2.7394,0.00071474,0,0,0,0
72.62,0.013123,2.8601,0.00082766,0,0,0,0
75.62,0.014057,2.9783,0.00067477,0,0,0,0
78.62,0.016219,3.0977,0.00076071,0,0,0,0
81.62,0.015908,3.2174,0.0010025,0,0,0,0
84.62,0.015679,3.3333,0.00079069,0,0,0,0
87.62,0.018344,3.4501,0.00068177,0,0,0,0
90.62,0.019251,3.5674,0.0011084,0,0,0,0
93.62,0.018225,3.6806,0.0011973,0,0,0,0
96.62,0.01997,3.7931,0.00094955,0,0,0,0
99.62,0.022234,3.9071,0.0010395,0,0,0,0
102.62,0.022032,4.0183,0.0011943,0,0,0,0
105.62,0.022248,4.1301,0.0010784,0,0,0,0
108.62,0.024625,4.2429,0.0011114,0,0,0,0
111.62,0.025955,4.3523,0.0013231,0,0,0,0
114.62,0.025492,4.4619,0.001389,0,0,0,0
117.62,0.027876,4.5719,0.0011913,0,0,0,0
120.62,0.02973,4.6793,0.0016866,0,0,0,0
123.62,0.030293,4.7871,0.0016866,0,0,0,0
126.62,0.03208,4.8961,0.0017535,0,0,0,0
129.62,0.033835,5,0.0017535,0,0,0,0
132.62,0.035259,5.1041,0.0022485,0,0,0,0
135.62,0.038007,5.2099,0.002017,0,0,0,0
138.62,0.03963,5.3126,0.0022155,0,0,0,0
141.62,0.040789,5.4146,0.0029427,0,0,0,0
144.62,0.045589,5.5159,0.0027771,0,0,0,0
147.62,0.048834,5.6171,0.002843,0,0,0,0
150.62,0.050357,5.7139,0.0035029,0,0,0,0
153.62,0.055157,5.8101,0.0038326,0,0,0,0
156.62,0.059891,5.9049,0.003998,0,0,0,0
159.62,0.063798,5.9949,0.0042948,0,0,0,0
162.62,0.068665,6.0839,0.005481,0,0,0,0
165.62,0.073466,6.1716,0.0051189,0,0,0,0
168.62,0.079492,6.2563,0.0055794,0,0,0,0
171.62,0.086445,6.3381,0.00706,0,0,0,0
174.62,0.091709,6.4183,0.0072248,0,0,0,0
177.62,0.098398,6.4971,0.0072248,0,0,0,0
180.62,0.10482,6.5733,0.0086376,0,0,0,0
183.62,0.11191,6.6496,0.0095562,0,0,0,0
186.62,0.12061,6.7244,0.0090975,0,0,0,0
189.62,0.1275,6.7963,0.010147,0,0,0,0
192.62,0.13571,6.8693,0.011424,0,0,0,0
195.62,0.14283,6.9397,0.011327,0,0,0,0
198.62,0.15131,7.0076,0.011752,0,0,0,0
201.62,0.16078,7.0746,0.013288,0,0,0,0
204.62,0.16932,7.1446,0.013714,0,0,0,0
207.62,0.17909,7.2077,0.013354,0,0,0,0
210.62,0.1866,7.2719,0.014855,0,0,0,0
213.62,0.19657,7.334,0.015996,0,0,0,0
216.62,0.20551,7.3934,0.015801,0,0,0,0
219.62,0.21535,7.4541,0.016583,0,0,0,0
222.62,0.22584,7.5136,0.018371,0,0,0,0
225.62,0.23561,7.5716,0.018339,0,0,0,0
228.62,0.24657,7.6299,0.018859,0,0,0,0
231.62,0.25531,7.6859,0.020223,0,0,0,0
234.62,0.26657,7.7403,0.020807,0,0,0,0
237.62,0.27657,7.795,0.021131,0,0,0,0
240.62,0.28836,7.8471,0.022265,0,0,0,0
243.62,0.29905,7.8983,0.023334,0,0,0,0
246.62,0.31061,7.9483,0.023721,0,0,0,0
249.62,0.3214,7.9971,0.024658,0,0,0,0
252.62,0.33266,8.0459,0.025756,0,0,0,0
255.62,0.34375,8.0956,0.026273,0,0,0,0
258.62,0.35508,8.1419,0.027143,0,0,0,0
261.62,0.36706,8.188,0.028272,0,0,0,0
264.62,0.37882,8.2343,0.029012,0,0,0,0
267.62,0.3918,8.2781,0.029815,0,0,0,0
270.62,0.40352,8.3216,0.030908,0,0,0,0
273.62,0.41706,8.3656,0.032193,0,0,0,0
276.62,0.42835,8.4069,0.032641,0,0,0,0
279.62,0.4412,8.4486,0.033603,0,0,0,0
282.62,0.45279,8.4896,0.034723,0,0,0,0
285.62,0.4665,8.5289,0.035907,0,0,0,0
288.62,0.47829,8.5683,0.036577,0,0,0,0
291.62,0.49253,8.6073,0.037949,0,0,0,0
294.62,0.50508,8.6439,0.039127,0,0,0,0
297.62,0.51958,8.6816,0.039891,0,0,0,0
300.62,0.53229,8.7193,0.041036,0,0,0,0
303.62,0.54673,8.7549,0.042211,0,0,0,0
306.62,0.55902,8.7896,0.043068,0,0,0,0
309.62,0.57339,8.8246,0.044051,0,0,0,0
312.62,0.586,8.8579,0.045666,0,0,0,0
315.62,0.60067,8.8913,0.046424,0,0,0,0
318.62,0.61372,8.9243,0.047592,0,0,0,0
321.62,0.62869,8.9553,0.048948,0,0,0,0
324.62,0.64223,8.9866,0.049926,0,0,0,0
327.62,0.65743,9.0176,0.050934,0,0,0,0
330.62,0.67087,9.0469,0.052315,0,0,0,0
333.62,0.686,9.077,0.053697,0,0,0,0
336.62,0.69994,9.1063,0.054607,0,0,0,0
339.62,0.71507,9.1346,0.056205,0,0,0,0
342.62,0.72941,9.164,0.057424,0,0,0,0
345.62,0.74401,9.1919,0.058488,0,0,0,0
348.62,0.75905,9.2186,0.060016,0,0,0,0
351.62,0.77368,9.2453,0.061356,0,0,0,0
354.62,0.78911,9.2713,0.062476,0,0,0,0
357.62,0.80375,9.2956,0.063812,0,0,0,0
360.62,0.81964,9.321,0.065363,0,0,0,0
363.62,0.83408,9.3456,0.066605,0,0,0,0
366.62,0.85057,9.3696,0.067998,0,0,0,0
369.62,0.86514,9.393,0.069512,0,0,0,0
372.62,0.88186,9.4156,0.07081,0,0,0,0
375.62,0.89666,9.4381,0.072258,0,0,0,0
378.62,0.91282,9.4597,0.073735,0,0,0,0
381.62,0.92769,9.4807,0.075365,0,0,0,0
384.62,0.94408,9.5027,0.076807,0,0,0,0
387.62,0.95921,9.5237,0.078524,0,0,0,0
390.62,0.97524,9.5447,0.080083,0,0,0,0
393.62,0.99133,9.5644,0.081548,0,0,0,0
396.62,1.0067,9.5837,0.08289,0,0,0,0
399.62,1.0234,9.602,0.084779,0,0,0,0
402.62,1.0388,9.6217,0.086297,0,0,0,0
405.62,1.056,9.6384,0.087542,0,0,0,0
408.62,1.0716,9.657,0.089574,0,0,0,0
411.62,1.0892,9.6747,0.091328,0,0,0,0
414.62,1.1052,9.6917,0.092746,0,0,0,0
417.62,1.1223,9.708,0.094826,0,0,0,0
420.62,1.1386,9.7243,0.096662,0,0,0,0
423.62,1.1554,9.7397,0.097984,0,0,0,0
426.62,1.1724,9.7543,0.10011,0,0,0,0
429.62,1.1885,9.7696,0.10224,0,0,0,0
432.62,1.2064,9.7843,0.1037,0,0,0,0
435.62,1.2221,9.7983,0.10594,0,0,0,0
438.62,1.2399,9.8116,0.10781,0,0,0,0
441.62,1.2557,9.8247,0.10959,0,0,0,0
444.62,1.2732,9.8376,0.11158,0,0,0,0
447.62,1.2892,9.8496,0.11365,0,0,0,0
450.62,1.3064,9.862,0.11533,0,0,0,0
453.62,1.3237,9.874,0.11739,0,0,0,0
456.62,1.3401,9.8854,0.11948,0,0,0,0
459.62,1.358,9.8966,0.1216,0,0,0,0
462.62,1.3744,9.9077,0.1235,0,0,0,0
465.62,1.3927,9.9177,0.12578,0,0,0,0
468.62,1.4092,9.9274,0.12823,0,0,0,0
471.62,1.4273,9.9373,0.13012,0,0,0,0
474.62,1.4442,9.9463,0.1323,0,0,0,0
477.62,1.4622,9.9557,0.13482,0,0,0,0
480.62,1.4805,9.9647,0.1371,0,0,0,0
483.62,1.4974,9.9726,0.13949,0,0,0,0
486.62,1.5164,9.981,0.14203,0,0,0,0
489.62,1.5335,9.989,0.14421,0,0,0,0
492.62,1.5525,9.996,0.14721,0,0,0,0
495.62,1.5701,10.003,0.14978,0,0,0,0
498.62,1.5887,10.01,0.15206,0,0,0,0
501.62,1.6073,10.016,0.15467,0,0,0,0
504.62,1.6251,10.022,0.15733,0,0,0,0
507.61,1.6445,10.027,0.1601,0,0,0,0
510.62,1.662,10.032,0.16269,0,0,0,0
513.61,1.6814,10.037,0.16539,0,0,0,0
516.61,1.6998,10.041,0.16803,0,0,0,0
519.61,1.7183,10.046,0.17082,0,0,0,0
522.62,1.7377,10.05,0.1738,0,0,0,0
525.61,1.7558,10.053,0.17689,0,0,0,0
528.62,1.7755,10.056,0.17991,0,0,0,0
531.62,1.7941,10.059,0.18325,0,0,0,0
534.62,1.8135,10.061,0.18649,0,0,0,0
537.62,1.8329,10.063,0.19023,0,0,0,0
540.61,1.8516,10.064,0.19367,0,0,0,0
543.61,1.8718,10.066,0.19677,0,0,0,0
546.62,1.8907,10.067,0.20049,0,0,0,0
549.61,1.9107,10.067,0.20425,0,0,0,0
552.62,1.9304,10.066,0.20788,0,0,0,0
555.61,1.9497,10.065,0.21172,0,0,0,0
558.61,1.97,10.064,0.21544,0,0,0,0
561.61,1.9889,10.063,0.21909,0,0,0,0
564.61,2.0093,10.061,0.22299,0,0,0,0
567.61,2.0292,10.058,0.22751,0,0,0,0
570.61,2.0486,10.056,0.23146,0,0,0,0
573.61,2.0694,10.053,0.23594,0,0,0,0
576.61,2.0887,10.048,0.24017,0,0,0,0
579.61,2.1092,10.044,0.24469,0,0,0,0
582.61,2.1294,10.039,0.24968,0,0,0,0
585.61,2.149,10.034,0.2538,0,0,0,0
588.61,2.17,10.028,0.25851,0,0,0,0
591.61,2.1892,10.022,0.26361,0,0,0,0
594.61,2.2101,10.015,0.26876,0,0,0,0
597.61,2.2305,10.007,0.27391,0,0,0,0
600.62,2.25,9.9997,0.27921,0,0,0,0
603.61,2.2714,9.9917,0.28448,0,0,0,0
606.61,2.2915,9.9827,0.29007,0,0,0,0
609.61,2.3122,9.9727,0.29602,0,0,0,0
612.61,2.3333,9.9613,0.3013,0,0,0,0
615.61,2.3526,9.951,0.30755,0,0,0,0
618.61,2.3745,9.9393,0.31398,0,0,0,0
621.61,2.3948,9.9266,0.3201,0,0,0,0
624.61,2.415,9.9137,0.32736,0,0,0,0
627.61,2.4369,9.9,0.33338,0,0,0,0
630.61,2.4566,9.8853,0.34035,0,0,0,0
633.61,2.4777,9.87,0.34725,0,0,0,0
636.61,2.4986,9.853,0.35374,0,0,0,0
639.61,2.519,9.8364,0.36089,0,0,0,0
642.61,2.5407,9.8187,0.36816,0,0,0,0
645.61,2.5608,9.7997,0.37606,0,0,0,0
648.61,2.5819,9.7804,0.38398,0,0,0,0
651.61,2.6038,9.7597,0.39222,0,0,0,0
654.61,2.6242,9.737,0.40031,0,0,0,0
657.61,2.646,9.7134,0.40883,0,0,0,0
660.61,2.6674,9.6887,0.4169,0,0,0,0
663.61,2.6883,9.6624,0.42572,0,0,0,0
666.61,2.7104,9.6351,0.43407,0,0,0,0
669.61,2.7313,9.6064,0.44277,0,0,0,0
672.61,2.753,9.576,0.45193,0,0,0,0
675.61,2.7752,9.5441,0.46109,0,0,0,0
678.61,2.7959,9.5104,0.47084,0,0,0,0
681.61,2.8187,9.4734,0.48063,0,0,0,0
684.61,2.8412,9.4346,0.49065,0,0,0,0
687.61,2.8627,9.3937,0.5004,0,0,0,0
690.61,2.8859,9.3496,0.5105,0,0,0,0
693.61,2.9083,9.3029,0.52109,0,0,0,0
696.61,2.9308,9.2521,0.53165,0,0,0,0
699.61,2.9547,9.2,0.54235,0,0,0,0
702.61,2.9776,9.1416,0.55462,0,0,0,0
705.61,3.0007,9.0783,0.56526,0,0,0,0
708.61,3.0248,9.0127,-Inf,0,0,0,0
711.61,3.0484,8.9396,-Inf,0,0,0,0
714.61,3.073,8.858,-Inf,0,0,0,0
717.61,3.0988,8.7699,-Inf,0,0,0,0
720.11,3.1206,8.683,-Inf,0,0,0,0