File: polyN_optimization/DP600_results/DATA/NT20_45_1.csv
Time[s],Displacement[mm],Force[kN],AxStrain_1,AxStrain_2,Thickness[mm],OuterWidth[mm],InnerWidth[mm]
0.57,0,-0.018135,0,0,1.5332,20,20.467
3.57,0.000449,0.087432,-7e-06,0,0,0,0
6.57,0.000687,0.22615,-9.9005e-05,0,0,0,0
9.57,0.001021,0.33029,0.00016299,0,0,0,0
12.57,0.001604,0.44015,-8.5004e-05,0,0,0,0
15.57,0.001914,0.55215,4.3999e-05,0,0,0,0
18.57,0.002016,0.66358,8e-06,0,0,0,0
21.57,0.002737,0.78215,7.1997e-05,0,0,0,0
24.57,0.003689,0.90157,5.2999e-05,0,0,0,0
27.57,0.003829,1.0249,-7.7003e-05,0,0,0,0
30.57,0.004122,1.1477,1.2e-05,0,0,0,0
33.57,0.004786,1.2719,0.00026896,0,0,0,0
36.57,0.005687,1.3936,0.00010199,0,0,0,0
39.57,0.005491,1.5164,0.00017898,0,0,0,0
42.57,0.006325,1.6394,2.7e-05,0,0,0,0
45.57,0.007748,1.7596,0.00018298,0,0,0,0
48.57,0.007542,1.8811,0.00012799,0,0,0,0
51.57,0.007423,2.0039,0.00022797,0,0,0,0
54.57,0.009008,2.1226,0.00021898,0,0,0,0
57.57,0.010051,2.2429,0.00020998,0,0,0,0
60.57,0.009265,2.3651,0.00034694,0,0,0,0
63.57,0.010259,2.4826,0.00032395,0,0,0,0
66.57,0.012077,2.6031,0.00033394,0,0,0,0
69.57,0.011673,2.7254,0.00032795,0,0,0,0
72.57,0.011492,2.8446,0.00046489,0,0,0,0
75.57,0.013749,2.9634,0.00058583,0,0,0,0
78.57,0.014067,3.0844,0.00046189,0,0,0,0
81.57,0.013482,3.2016,0.00047689,0,0,0,0
84.57,0.014861,3.3201,0.00074572,0,0,0,0
87.57,0.016759,3.4399,0.00042891,0,0,0,0
90.57,0.016028,3.5543,0.00052686,0,0,0,0
93.57,0.016194,3.6731,0.00083465,0,0,0,0
96.57,0.018242,3.7904,0.0007737,0,0,0,0
99.57,0.01921,3.9053,0.00064179,0,0,0,0
102.57,0.018493,4.0211,0.00071375,0,0,0,0
105.57,0.020591,4.1389,0.00071874,0,0,0,0
108.57,0.022044,4.2523,0.00083165,0,0,0,0
111.57,0.021534,4.3681,0.00067077,0,0,0,0
114.57,0.022669,4.4839,0.00086363,0,0,0,0
117.57,0.024866,4.5953,0.0011014,0,0,0,0
120.57,0.025528,4.7084,0.00093856,0,0,0,0
123.57,0.02587,4.8201,0.00093856,0,0,0,0
126.57,0.027867,4.9281,0.0013032,0,0,0,0
129.57,0.029303,5.0399,0.0015059,0,0,0,0
132.57,0.030658,5.1499,0.0012722,0,0,0,0
135.57,0.03213,5.258,0.0014709,0,0,0,0
138.57,0.03371,5.3661,0.0019042,0,0,0,0
141.57,0.03597,5.4731,0.0016686,0,0,0,0
144.57,0.038535,5.577,0.0020369,0,0,0,0
147.57,0.04007,5.6801,0.0022984,0,0,0,0
150.57,0.042935,5.7824,0.0026355,0,0,0,0
153.57,0.047497,5.8817,0.002442,0,0,0,0
156.57,0.050007,5.9799,0.003174,0,0,0,0
159.57,0.052528,6.0779,0.003743,0,0,0,0
162.57,0.058198,6.171,0.0037848,0,0,0,0
165.57,0.062442,6.2629,0.0040817,0,0,0,0
168.57,0.066637,6.3526,0.0052552,0,0,0,0
171.57,0.071952,6.4394,0.0055297,0,0,0,0
174.57,0.076943,6.5246,0.0054352,0,0,0,0
177.57,0.083853,6.6091,0.0064184,0,0,0,0
180.57,0.090562,6.69,0.0075375,0,0,0,0
183.57,0.096087,6.7696,0.0072189,0,0,0,0
186.57,0.10304,6.8476,0.0075474,0,0,0,0
189.57,0.10926,6.9227,0.0091233,0,0,0,0
192.57,0.11777,6.9961,0.0097236,0,0,0,0
195.57,0.1256,7.0699,0.0094373,0,0,0,0
198.57,0.13292,7.1397,0.010817,0,0,0,0
201.57,0.14085,7.2089,0.012004,0,0,0,0
204.57,0.14811,7.2779,0.011752,0,0,0,0
207.57,0.15752,7.3439,0.012245,0,0,0,0
210.57,0.16643,7.4089,0.014172,0,0,0,0
213.57,0.17557,7.4739,0.014174,0,0,0,0
216.57,0.18507,7.5364,0.014272,0,0,0,0
219.57,0.19308,7.5989,0.016125,0,0,0,0
222.57,0.20315,7.6609,0.01664,0,0,0,0
225.57,0.21228,7.7201,0.016679,0,0,0,0
228.57,0.2235,7.7791,0.017589,0,0,0,0
231.57,0.2331,7.8376,0.018984,0,0,0,0
234.57,0.24433,7.8924,0.019083,0,0,0,0
237.57,0.25403,7.948,0.019607,0,0,0,0
240.57,0.26387,8.0026,0.02129,0,0,0,0
243.57,0.27453,8.0549,0.021754,0,0,0,0
246.57,0.28502,8.1069,0.022269,0,0,0,0
249.57,0.29701,8.1586,0.023371,0,0,0,0
252.57,0.30771,8.2079,0.024274,0,0,0,0
255.57,0.32006,8.2576,0.024737,0,0,0,0
258.57,0.33086,8.3069,0.025677,0,0,0,0
261.57,0.34291,8.3539,0.02691,0,0,0,0
264.57,0.35346,8.4013,0.027465,0,0,0,0
267.57,0.36634,8.4479,0.028604,0,0,0,0
270.57,0.37766,8.4926,0.029695,0,0,0,0
273.57,0.39109,8.5366,0.030352,0,0,0,0
276.57,0.403,8.5806,0.031351,0,0,0,0
279.57,0.41679,8.6221,0.032566,0,0,0,0
282.57,0.42867,8.6646,0.033319,0,0,0,0
285.57,0.4421,8.7056,0.034499,0,0,0,0
288.57,0.45401,8.7456,0.035429,0,0,0,0
291.57,0.46727,8.7853,0.036412,0,0,0,0
294.57,0.47927,8.8246,0.037576,0,0,0,0
297.57,0.49333,8.8621,0.038498,0,0,0,0
300.57,0.50617,8.9,0.039663,0,0,0,0
303.57,0.52069,8.9366,0.041004,0,0,0,0
306.57,0.53392,8.9726,0.041638,0,0,0,0
309.57,0.54858,9.008,0.042968,0,0,0,0
312.57,0.56171,9.043,0.044294,0,0,0,0
315.57,0.57624,9.0759,0.045497,0,0,0,0
318.57,0.58911,9.1093,0.046355,0,0,0,0
321.57,0.6035,9.1419,0.047858,0,0,0,0
324.57,0.61647,9.1736,0.049028,0,0,0,0
327.57,0.63146,9.205,0.050003,0,0,0,0
330.57,0.64452,9.2366,0.051193,0,0,0,0
333.57,0.66054,9.2669,0.052607,0,0,0,0
336.57,0.67435,9.2966,0.053781,0,0,0,0
339.57,0.69,9.3263,0.054905,0,0,0,0
342.57,0.70409,9.3541,0.056469,0,0,0,0
345.57,0.72014,9.3817,0.0577,0,0,0,0
348.57,0.73418,9.409,0.058883,0,0,0,0
351.57,0.74969,9.4364,0.060319,0,0,0,0
354.57,0.76445,9.4631,0.061696,0,0,0,0
357.57,0.77962,9.4887,0.063168,0,0,0,0
360.57,0.7944,9.5144,0.064592,0,0,0,0
363.57,0.80939,9.5389,0.065652,0,0,0,0
366.57,0.82515,9.5637,0.067399,0,0,0,0
369.57,0.83966,9.5873,0.06857,0,0,0,0
372.57,0.85638,9.6103,0.070032,0,0,0,0
375.57,0.87162,9.633,0.071626,0,0,0,0
378.57,0.88832,9.656,0.073275,0,0,0,0
381.57,0.90349,9.6776,0.074446,0,0,0,0
384.57,0.92023,9.6983,0.076231,0,0,0,0
387.57,0.93544,9.7203,0.077768,0,0,0,0
390.57,0.95217,9.7403,0.079326,0,0,0,0
393.57,0.96782,9.761,0.081038,0,0,0,0
396.57,0.98411,9.78,0.082723,0,0,0,0
399.57,1.0003,9.7996,0.084371,0,0,0,0
402.57,1.0163,9.819,0.086021,0,0,0,0
405.57,1.0329,9.837,0.087831,0,0,0,0
408.57,1.049,9.8553,0.089257,0,0,0,0
411.57,1.0662,9.8729,0.091137,0,0,0,0
414.57,1.0818,9.89,0.093254,0,0,0,0
417.57,1.0992,9.906,0.094657,0,0,0,0
420.57,1.1154,9.923,0.096618,0,0,0,0
423.57,1.1331,9.9386,0.098453,0,0,0,0
426.57,1.1494,9.9533,0.10046,0,0,0,0
429.57,1.1665,9.9684,0.10187,0,0,0,0
432.57,1.1836,9.9827,0.1036,0,0,0,0
435.57,1.2003,9.9977,0.1058,0,0,0,0
438.57,1.2183,10.011,0.1076,0,0,0,0
441.57,1.2347,10.024,0.10938,0,0,0,0
444.57,1.2529,10.038,0.11163,0,0,0,0
447.57,1.2698,10.051,0.11353,0,0,0,0
450.57,1.288,10.062,0.11559,0,0,0,0
453.57,1.3055,10.075,0.11771,0,0,0,0
456.57,1.3231,10.086,0.12005,0,0,0,0
459.57,1.3411,10.097,0.12206,0,0,0,0
462.57,1.3581,10.107,0.12426,0,0,0,0
465.57,1.3766,10.118,0.12651,0,0,0,0
468.57,1.3936,10.128,0.12907,0,0,0,0
471.57,1.4122,10.138,0.13134,0,0,0,0
474.57,1.4295,10.146,0.13335,0,0,0,0
477.57,1.4476,10.155,0.1359,0,0,0,0
480.57,1.4661,10.164,0.13851,0,0,0,0
483.57,1.4837,10.172,0.14067,0,0,0,0
486.57,1.503,10.179,0.14332,0,0,0,0
489.57,1.5202,10.187,0.14604,0,0,0,0
492.57,1.539,10.194,0.14904,0,0,0,0
495.57,1.5573,10.2,0.15164,0,0,0,0
498.57,1.5757,10.206,0.15422,0,0,0,0
501.57,1.5947,10.211,0.1574,0,0,0,0
504.57,1.6123,10.217,0.16,0,0,0,0
507.57,1.632,10.222,0.16258,0,0,0,0
510.57,1.6495,10.225,0.16557,0,0,0,0
513.57,1.6689,10.23,0.1686,0,0,0,0
516.57,1.6876,10.234,0.17176,0,0,0,0
519.57,1.7061,10.237,0.17482,0,0,0,0
522.57,1.7262,10.241,0.17786,0,0,0,0
525.57,1.7447,10.243,0.18123,0,0,0,0
528.57,1.7645,10.245,0.18444,0,0,0,0
531.57,1.7836,10.247,0.18793,0,0,0,0
534.57,1.803,10.249,0.19141,0,0,0,0
537.57,1.8231,10.249,0.19481,0,0,0,0
540.57,1.8419,10.249,0.19822,0,0,0,0
543.57,1.8623,10.249,0.20161,0,0,0,0
546.57,1.8813,10.248,0.20527,0,0,0,0
549.57,1.9009,10.247,0.20949,0,0,0,0
552.57,1.9215,10.245,0.21322,0,0,0,0
555.57,1.9403,10.243,0.21677,0,0,0,0
558.57,1.9609,10.241,0.22108,0,0,0,0
561.57,1.9806,10.238,0.22566,0,0,0,0
564.57,2.0007,10.234,0.23033,0,0,0,0
567.57,2.0213,10.23,0.23433,0,0,0,0
570.57,2.0406,10.225,0.23884,0,0,0,0
573.57,2.0613,10.22,0.24347,0,0,0,0
576.57,2.0812,10.214,0.24815,0,0,0,0
579.57,2.1013,10.207,0.25307,0,0,0,0
582.57,2.122,10.201,0.25829,0,0,0,0
585.57,2.1417,10.193,0.26361,0,0,0,0
588.57,2.1626,10.185,0.26866,0,0,0,0
591.57,2.183,10.176,0.27356,0,0,0,0
594.57,2.2027,10.167,0.27954,0,0,0,0
597.57,2.2243,10.157,0.28503,0,0,0,0
600.57,2.2443,10.146,0.29079,0,0,0,0
603.57,2.2652,10.134,0.29665,0,0,0,0
606.57,2.2862,10.122,0.30279,0,0,0,0
609.57,2.3066,10.109,0.3094,0,0,0,0
612.57,2.3279,10.095,0.31586,0,0,0,0
615.57,2.3484,10.08,0.32189,0,0,0,0
618.57,2.3692,10.065,0.32862,0,0,0,0
621.57,2.3908,10.048,0.33532,0,0,0,0
624.57,2.4109,10.031,0.34262,0,0,0,0
627.57,2.4324,10.012,0.34941,0,0,0,0
630.57,2.4534,9.9927,0.35665,0,0,0,0
633.57,2.4738,9.9727,0.36401,0,0,0,0
636.57,2.496,9.951,0.37167,0,0,0,0
639.57,2.5162,9.9291,0.38028,0,0,0,0
642.57,2.5379,9.906,0.38738,0,0,0,0
645.57,2.5602,9.8801,0.39551,0,0,0,0
648.57,2.5807,9.8534,0.40373,0,0,0,0
651.57,2.6032,9.8254,0.41229,0,0,0,0
654.57,2.6246,9.795,0.42053,0,0,0,0
657.57,2.646,9.7636,0.42919,0,0,0,0
660.57,2.6685,9.7301,0.43828,0,0,0,0
663.57,2.6894,9.695,0.44757,0,0,0,0
666.57,2.7121,9.6574,0.45626,0,0,0,0
669.57,2.7345,9.6184,0.46636,0,0,0,0
672.57,2.7563,9.5751,0.47597,0,0,0,0
675.57,2.7789,9.5303,0.48508,0,0,0,0
678.57,2.8018,9.4821,0.49577,0,0,0,0
681.57,2.824,9.4294,0.50548,0,0,0,0
684.57,2.8477,9.3733,0.51426,0,0,0,0
687.57,2.8708,9.3136,0.52545,0,0,0,0
690.57,2.894,9.2484,0.53538,0,0,0,0
693.57,2.9184,9.1784,0.5464,0,0,0,0
696.57,2.9423,9.1013,0.55696,0,0,0,0
699.57,2.9666,9.0171,0.56763,0,0,0,0
702.57,2.9938,8.9148,-Inf,0,0,0,0
703.07,3.0011,8.8913,-Inf,0,0,0,0