File: polyN_optimization/DP600_results/DATA/NT20_00_1.csv
Time[s],Displacement[mm],Force[kN],AxStrain_1,AxStrain_2,Thickness[mm],OuterWidth[mm],InnerWidth[mm]
0.65,0,-0.016605,0,0,1.5269,20,10.006
3.65,0.000594,0.078705,-0.00013401,0,0,0,0
6.64,0.000949,0.224,-1.9e-05,0,0,0,0
9.64,0.001213,0.33157,3.6999e-05,0,0,0,0
12.64,0.001882,0.44242,0.00033394,0,0,0,0
15.64,0.002476,0.54757,8.2997e-05,0,0,0,0
18.64,0.002771,0.65685,-1e-05,0,0,0,0
21.64,0.002903,0.77171,0.00031495,0,0,0,0
24.64,0.004052,0.88757,0.00015899,0,0,0,0
27.64,0.004628,1.0073,5.9998e-05,0,0,0,0
30.64,0.004684,1.1251,0.00031495,0,0,0,0
33.65,0.005277,1.2439,0.00023197,0,0,0,0
36.65,0.006677,1.3646,-4.0001e-05,0,0,0,0
39.64,0.006472,1.4844,0.00016899,0,0,0,0
42.65,0.006432,1.6016,0.00027096,0,0,0,0
45.64,0.008078,1.7221,0.00020198,0,0,0,0
48.65,0.008551,1.8407,0.00011299,0,0,0,0
51.65,0.008197,1.9569,0.00022797,0,0,0,0
54.65,0.009054,2.0753,0.00037693,0,0,0,0
57.64,0.011031,2.1937,0.00032795,0,0,0,0
60.65,0.010302,2.3089,0.00031795,0,0,0,0
63.64,0.010478,2.4266,0.00048988,0,0,0,0
66.64,0.012484,2.5451,0.00071474,0,0,0,0
69.64,0.01314,2.6606,0.0004369,0,0,0,0
72.64,0.01255,2.7776,0.00046689,0,0,0,0
75.64,0.013739,2.894,0.00074772,0,0,0,0
78.64,0.015841,3.0099,0.00046989,0,0,0,0
81.64,0.015328,3.1276,0.00042691,0,0,0,0
84.64,0.015417,3.2437,0.00067177,0,0,0,0
87.64,0.017715,3.3579,0.00071774,0,0,0,0
90.64,0.018483,3.4759,0.00069876,0,0,0,0
93.64,0.017861,3.5914,0.00069876,0,0,0,0
96.64,0.019552,3.7046,0.00081367,0,0,0,0
99.64,0.021406,3.8206,0.00083065,0,0,0,0
102.64,0.021237,3.9354,0.00069176,0,0,0,0
105.64,0.021698,4.0473,0.00085064,0,0,0,0
108.64,0.024257,4.1609,0.0009995,0,0,0,0
111.64,0.024909,4.2737,0.00082766,0,0,0,0
114.64,0.025127,4.3839,0.0010255,0,0,0,0
117.64,0.027048,4.4966,0.0012572,0,0,0,0
120.64,0.028537,4.6081,0.0012902,0,0,0,0
123.64,0.029564,4.7151,0.0012572,0,0,0,0
126.64,0.031053,4.8251,0.0014889,0,0,0,0
129.64,0.032742,4.9331,0.0017535,0,0,0,0
132.64,0.034496,5.0387,0.0015218,0,0,0,0
135.64,0.036781,5.1429,0.0016536,0,0,0,0
138.64,0.038304,5.2491,0.0020838,0,0,0,0
141.64,0.040423,5.353,0.0023812,0,0,0,0
144.64,0.044329,5.4549,0.0021826,0,0,0,0
147.64,0.047474,5.5579,0.0026784,0,0,0,0
150.64,0.049163,5.6577,0.0032397,0,0,0,0
153.64,0.053864,5.7529,0.0032069,0,0,0,0
156.64,0.058333,5.8489,0.0035357,0,0,0,0
159.64,0.061743,5.9413,0.0045586,0,0,0,0
162.64,0.066742,6.0306,0.0048214,0,0,0,0
165.64,0.071344,6.1191,0.0049209,0,0,0,0
168.64,0.07674,6.2043,0.0056122,0,0,0,0
171.64,0.083957,6.2861,0.0067303,0,0,0,0
174.64,0.088824,6.3681,0.006468,0,0,0,0
177.64,0.095147,6.4476,0.00706,0,0,0,0
180.64,0.1019,6.5241,0.0085057,0,0,0,0
183.64,0.10899,6.6009,0.0088993,0,0,0,0
186.64,0.11759,6.675,0.0087684,0,0,0,0
189.64,0.12412,6.7464,0.009982,0,0,0,0
192.64,0.13183,6.8189,0.011095,0,0,0,0
195.64,0.13925,6.8886,0.010867,0,0,0,0
198.64,0.14722,6.9559,0.011424,0,0,0,0
201.64,0.15696,7.0241,0.013156,0,0,0,0
204.64,0.16477,7.0911,0.013515,0,0,0,0
207.64,0.17434,7.1551,0.013156,0,0,0,0
210.64,0.18192,7.2201,0.014723,0,0,0,0
213.64,0.19119,7.2833,0.015539,0,0,0,0
216.64,0.20053,7.3434,0.015245,0,0,0,0
219.64,0.21003,7.4051,0.016223,0,0,0,0
222.64,0.22079,7.4649,0.017785,0,0,0,0
225.64,0.22976,7.5224,0.017915,0,0,0,0
228.64,0.24055,7.5809,0.018338,0,0,0,0
231.64,0.24932,7.638,0.019507,0,0,0,0
234.64,0.26035,7.6924,0.020383,0,0,0,0
237.64,0.27071,7.7474,0.020773,0,0,0,0
240.64,0.2821,7.8003,0.02181,0,0,0,0
243.64,0.29289,7.8511,0.022878,0,0,0,0
246.64,0.30395,7.9016,0.023299,0,0,0,0
249.64,0.31504,7.9517,0.024269,0,0,0,0
252.64,0.32504,8.0011,0.025045,0,0,0,0
255.64,0.33712,8.0493,0.026045,0,0,0,0
258.64,0.34792,8.0964,0.026916,0,0,0,0
261.64,0.3605,8.1434,0.027752,0,0,0,0
264.64,0.37185,8.1886,0.028621,0,0,0,0
267.64,0.38519,8.2337,0.029715,0,0,0,0
270.64,0.39622,8.2784,0.030615,0,0,0,0
273.64,0.40963,8.3216,0.031449,0,0,0,0
276.64,0.42042,8.3634,0.032635,0,0,0,0
279.64,0.43363,8.4064,0.033404,0,0,0,0
282.64,0.44525,8.4473,0.034428,0,0,0,0
285.64,0.45905,8.4867,0.03561,0,0,0,0
288.64,0.47107,8.5267,0.036344,0,0,0,0
291.64,0.48528,8.5659,0.037653,0,0,0,0
294.64,0.49766,8.6031,0.038577,0,0,0,0
297.64,0.51189,8.6419,0.039437,0,0,0,0
300.64,0.52424,8.6784,0.040709,0,0,0,0
303.64,0.53838,8.7143,0.041853,0,0,0,0
306.64,0.55069,8.7503,0.042805,0,0,0,0
309.64,0.5648,8.7849,0.043914,0,0,0,0
312.64,0.57748,8.819,0.04496,0,0,0,0
315.64,0.59264,8.8527,0.046193,0,0,0,0
318.64,0.60542,8.8851,0.047299,0,0,0,0
321.64,0.62081,8.9163,0.04853,0,0,0,0
324.64,0.63412,8.9483,0.049728,0,0,0,0
327.64,0.64942,8.9784,0.050799,0,0,0,0
330.64,0.66243,9.009,0.05215,0,0,0,0
333.64,0.67792,9.0386,0.053375,0,0,0,0
336.64,0.69123,9.0681,0.054692,0,0,0,0
339.64,0.70639,9.097,0.056008,0,0,0,0
342.64,0.72,9.1263,0.057259,0,0,0,0
345.64,0.73559,9.1536,0.05854,0,0,0,0
348.64,0.74996,9.1803,0.060162,0,0,0,0
351.64,0.76535,9.2073,0.061346,0,0,0,0
354.64,0.78005,9.2331,0.062374,0,0,0,0
357.64,0.79541,9.259,0.064113,0,0,0,0
360.64,0.81081,9.2846,0.065571,0,0,0,0
363.64,0.82594,9.3086,0.066719,0,0,0,0
366.64,0.8417,9.3323,0.068081,0,0,0,0
369.64,0.85679,9.356,0.069563,0,0,0,0
372.64,0.87272,9.379,0.071014,0,0,0,0
375.64,0.88765,9.402,0.072523,0,0,0,0
378.64,0.9038,9.4233,0.073939,0,0,0,0
381.64,0.91804,9.4453,0.075352,0,0,0,0
384.64,0.93489,9.4666,0.077131,0,0,0,0
387.64,0.94969,9.4876,0.078388,0,0,0,0
390.64,0.96601,9.5086,0.079887,0,0,0,0
393.64,0.98141,9.5283,0.081597,0,0,0,0
396.64,0.99803,9.5474,0.083273,0,0,0,0
399.64,1.0138,9.566,0.084705,0,0,0,0
402.64,1.0303,9.5854,0.086437,0,0,0,0
405.64,1.047,9.6037,0.088045,0,0,0,0
408.64,1.063,9.6216,0.089651,0,0,0,0
411.64,1.0805,9.6386,0.091344,0,0,0,0
414.64,1.0962,9.6553,0.093005,0,0,0,0
417.64,1.1139,9.6723,0.094481,0,0,0,0
420.64,1.1299,9.689,0.096558,0,0,0,0
423.64,1.1474,9.7047,0.098299,0,0,0,0
426.64,1.1638,9.72,0.099978,0,0,0,0
429.64,1.181,9.7347,0.10168,0,0,0,0
432.64,1.198,9.7497,0.10378,0,0,0,0
435.64,1.2145,9.7633,0.10559,0,0,0,0
438.64,1.2323,9.7766,0.10711,0,0,0,0
441.64,1.2479,9.79,0.10931,0,0,0,0
444.64,1.2659,9.8036,0.11147,0,0,0,0
447.64,1.2822,9.816,0.11328,0,0,0,0
450.64,1.3001,9.828,0.11529,0,0,0,0
453.64,1.3169,9.8406,0.11735,0,0,0,0
456.64,1.3344,9.852,0.11953,0,0,0,0
459.64,1.3522,9.863,0.12176,0,0,0,0
462.64,1.3698,9.8741,0.12363,0,0,0,0
465.64,1.3881,9.8847,0.12585,0,0,0,0
468.64,1.405,9.8943,0.12848,0,0,0,0
471.64,1.4234,9.904,0.13051,0,0,0,0
474.64,1.4408,9.913,0.13283,0,0,0,0
477.64,1.4594,9.9227,0.13524,0,0,0,0
480.64,1.4769,9.931,0.13737,0,0,0,0
483.64,1.4951,9.9393,0.13988,0,0,0,0
486.64,1.5137,9.947,0.1425,0,0,0,0
489.64,1.5313,9.955,0.14476,0,0,0,0
492.64,1.5506,9.962,0.14739,0,0,0,0
495.64,1.5683,9.9694,0.14999,0,0,0,0
498.64,1.5872,9.975,0.15261,0,0,0,0
501.64,1.606,9.981,0.15528,0,0,0,0
504.64,1.624,9.9867,0.15825,0,0,0,0
507.64,1.6434,9.992,0.16084,0,0,0,0
510.64,1.661,9.9966,0.16341,0,0,0,0
513.64,1.6805,10.002,0.16633,0,0,0,0
516.64,1.6985,10.005,0.16924,0,0,0,0
519.64,1.7175,10.01,0.17225,0,0,0,0
522.64,1.7369,10.013,0.17517,0,0,0,0
525.64,1.7551,10.016,0.17809,0,0,0,0
528.64,1.7747,10.019,0.1813,0,0,0,0
531.64,1.7934,10.021,0.18485,0,0,0,0
534.64,1.8132,10.023,0.18829,0,0,0,0
537.64,1.8328,10.025,0.19157,0,0,0,0
540.64,1.8514,10.026,0.19498,0,0,0,0
543.64,1.8719,10.027,0.19838,0,0,0,0
546.64,1.8906,10.027,0.20236,0,0,0,0
549.64,1.911,10.027,0.20585,0,0,0,0
552.64,1.9304,10.025,0.2094,0,0,0,0
555.64,1.9496,10.025,0.21336,0,0,0,0
558.64,1.9703,10.023,0.21734,0,0,0,0
561.64,1.9889,10.021,0.22117,0,0,0,0
564.64,2.0096,10.019,0.22551,0,0,0,0
567.64,2.0295,10.016,0.22949,0,0,0,0
570.64,2.0493,10.013,0.23391,0,0,0,0
573.64,2.07,10.009,0.23835,0,0,0,0
576.64,2.0892,10.004,0.24277,0,0,0,0
579.64,2.1096,9.9993,0.24744,0,0,0,0
582.64,2.1301,9.994,0.25223,0,0,0,0
585.64,2.1496,9.988,0.25696,0,0,0,0
588.64,2.1703,9.9813,0.26171,0,0,0,0
591.64,2.1898,9.975,0.26727,0,0,0,0
594.64,2.2105,9.967,0.27172,0,0,0,0
597.64,2.2312,9.9587,0.27705,0,0,0,0
600.64,2.2511,9.9506,0.28251,0,0,0,0
603.64,2.2723,9.941,0.28833,0,0,0,0
606.64,2.2924,9.9313,0.29439,0,0,0,0
609.64,2.3129,9.9206,0.30047,0,0,0,0
612.64,2.3341,9.909,0.30633,0,0,0,0
615.64,2.3541,9.897,0.31243,0,0,0,0
618.64,2.3756,9.8843,0.31869,0,0,0,0
621.64,2.396,9.8707,0.32528,0,0,0,0
624.64,2.4164,9.8567,0.33181,0,0,0,0
627.64,2.438,9.8414,0.33861,0,0,0,0
630.64,2.4579,9.825,0.34517,0,0,0,0
633.64,2.4794,9.8087,0.3525,0,0,0,0
636.64,2.5003,9.791,0.35951,0,0,0,0
639.64,2.5203,9.773,0.36676,0,0,0,0
642.64,2.5425,9.7537,0.37455,0,0,0,0
645.64,2.5625,9.7327,0.38204,0,0,0,0
648.64,2.5839,9.7114,0.39038,0,0,0,0
651.64,2.606,9.6883,0.39828,0,0,0,0
654.64,2.6263,9.6639,0.40691,0,0,0,0
657.64,2.6481,9.638,0.41512,0,0,0,0
660.64,2.6699,9.6107,0.42372,0,0,0,0
663.64,2.6906,9.5831,0.43235,0,0,0,0
666.64,2.7129,9.5527,0.44159,0,0,0,0
669.64,2.7344,9.52,0.45049,0,0,0,0
672.64,2.756,9.4859,0.4604,0,0,0,0
675.64,2.7784,9.4507,0.46951,0,0,0,0
678.64,2.7995,9.412,0.48032,0,0,0,0
681.64,2.8221,9.3714,0.49026,0,0,0,0
684.64,2.8454,9.3281,0.50055,0,0,0,0
687.64,2.8674,9.2814,0.51125,0,0,0,0
690.64,2.8905,9.2316,0.52252,0,0,0,0
693.64,2.9137,9.1784,0.53375,0,0,0,0
696.64,2.9363,9.1199,0.54552,0,0,0,0
699.64,2.9609,9.0591,0.55785,0,0,0,0
702.64,2.9846,8.9911,0.56984,0,0,0,0
705.64,3.0082,8.9171,0.58289,0,0,0,0
708.64,3.0331,8.8377,0.59606,0,0,0,0
711.64,3.058,8.7506,-Inf,0,0,0,0
714.64,3.0831,8.6493,-Inf,0,0,0,0
716.64,3.1033,8.5738,-Inf,0,0,0,0