File: polyN_optimization/DP600_results/DATA/NT6_90_2.csv
Time[s],Displacement[mm],Force[kN],AxStrain_1,AxStrain_2,Thickness[mm],OuterWidth[mm],InnerWidth[mm]
0.56,0,-0.017602,0,0,1.5304,20,10.016
3.06,0.000279,0.048145,-8.6004e-05,0,0,0,0
5.55,0.000746,0.18085,-5.6002e-05,0,0,0,0
8.05,0.000876,0.27015,-0.00017502,0,0,0,0
10.55,0.001205,0.36171,0.00010799,0,0,0,0
13.05,0.001548,0.45358,5.3999e-05,0,0,0,0
15.55,0.001976,0.54585,-9.6005e-05,0,0,0,0
18.05,0.002053,0.63872,-0.00025203,0,0,0,0
20.55,0.002506,0.73657,0.00010299,0,0,0,0
23.05,0.002784,0.83486,9.5995e-05,0,0,0,0
25.55,0.003731,0.93628,0.00023797,0,0,0,0
28.05,0.00388,1.0377,7e-06,0,0,0,0
30.55,0.003959,1.1414,0.00012899,0,0,0,0
33.05,0.004453,1.2447,0.00026496,0,0,0,0
35.55,0.005489,1.3449,0.0004439,0,0,0,0
38.05,0.005846,1.4494,0.00029496,0,0,0,0
40.55,0.005625,1.5476,0.00024197,0,0,0,0
43.05,0.005916,1.6564,0.00046989,0,0,0,0
45.55,0.006998,1.7521,0.00075771,0,0,0,0
48.05,0.007882,1.8561,0.00038693,0,0,0,0
50.55,0.007495,1.9553,0.00037393,0,0,0,0
53.05,0.007727,2.0544,0.00053586,0,0,0,0
55.55,0.009422,2.1544,0.00075472,0,0,0,0
58.05,0.01018,2.2553,0.00068477,0,0,0,0
60.55,0.009637,2.358,0.0004569,0,0,0,0
63.05,0.009488,2.4571,0.0004469,0,0,0,0
65.56,0.010733,2.5596,0.00072474,0,0,0,0
68.06,0.012011,2.6596,0.00081767,0,0,0,0
70.56,0.011991,2.7596,0.00056584,0,0,0,0
73.06,0.011633,2.859,0.00049988,0,0,0,0
75.56,0.012345,2.9614,0.00064879,0,0,0,0
78.05,0.014166,3.0624,0.00087362,0,0,0,0
80.56,0.014143,3.1606,0.00072774,0,0,0,0
83.06,0.013428,3.2634,0.00047689,0,0,0,0
85.55,0.014375,3.3591,0.00073473,0,0,0,0
88.06,0.016086,3.4616,0.00074772,0,0,0,0
90.56,0.016334,3.5587,0.00053286,0,0,0,0
93.05,0.015547,3.6611,0.00025797,0,0,0,0
95.55,0.016258,3.7576,0.00031495,0,0,0,0
98.06,0.018165,3.8554,0.00061281,0,0,0,0
100.56,0.018705,3.9534,0.00050287,0,0,0,0
103.05,0.01797,4.0526,0.0004469,0,0,0,0
105.55,0.018781,4.1526,0.00040092,0,0,0,0
108.05,0.020612,4.2511,0.00086363,0,0,0,0
110.55,0.021413,4.3509,0.00069476,0,0,0,0
113.05,0.02079,4.4473,0.00052986,0,0,0,0
115.55,0.021254,4.5436,0.00076071,0,0,0,0
118.05,0.023174,4.6424,0.0011913,0,0,0,0
120.55,0.024101,4.7377,0.0011583,0,0,0,0
123.05,0.024101,4.834,0.00072774,0,0,0,0
125.55,0.024432,4.93,0.00095954,0,0,0,0
128.05,0.026154,5.0251,0.0012572,0,0,0,0
130.55,0.027544,5.1197,0.0014889,0,0,0,0
133.05,0.02814,5.2139,0.0013561,0,0,0,0
135.55,0.028835,5.3089,0.0012243,0,0,0,0
138.05,0.030722,5.4039,0.0016536,0,0,0,0
140.55,0.031981,5.4967,0.0019511,0,0,0,0
143.05,0.033272,5.5906,0.0014889,0,0,0,0
145.55,0.034596,5.6839,0.0011913,0,0,0,0
148.05,0.036351,5.7764,0.0015877,0,0,0,0
150.55,0.037576,5.8686,0.0019511,0,0,0,0
153.05,0.03933,5.9606,0.0016876,0,0,0,0
155.55,0.042509,6.0499,0.0016536,0,0,0,0
158.05,0.044065,6.1394,0.0022155,0,0,0,0
160.55,0.045323,6.2239,0.002843,0,0,0,0
163.05,0.048203,6.3111,0.0028759,0,0,0,0
165.55,0.052341,6.3957,0.0027442,0,0,0,0
168.05,0.055023,6.4794,0.0032069,0,0,0,0
170.55,0.057009,6.5611,0.0039651,0,0,0,0
173.05,0.061048,6.6434,0.0040976,0,0,0,0
175.55,0.064756,6.7199,0.0041305,0,0,0,0
178.05,0.068332,6.8007,0.0047238,0,0,0,0
180.55,0.072967,6.876,0.0057773,0,0,0,0
183.05,0.077569,6.9531,0.0062057,0,0,0,0
185.55,0.08088,7.0251,0.0059751,0,0,0,0
188.05,0.085283,7.0981,0.0063379,0,0,0,0
190.55,0.09121,7.1693,0.0076199,0,0,0,0
193.05,0.096275,7.2393,0.0080475,0,0,0,0
195.55,0.10124,7.3101,0.0075554,0,0,0,0
198.05,0.1071,7.3779,0.0079493,0,0,0,0
200.55,0.11154,7.4451,0.0093284,0,0,0,0
203.05,0.11697,7.5099,0.010115,0,0,0,0
205.55,0.12405,7.5751,0.0095899,0,0,0,0
208.05,0.12988,7.6366,0.009885,0,0,0,0
210.55,0.13561,7.7029,0.011392,0,0,0,0
213.05,0.14309,7.7651,0.012275,0,0,0,0
215.55,0.14812,7.8254,0.011948,0,0,0,0
218.05,0.15458,7.8851,0.012243,0,0,0,0
220.55,0.16249,7.9447,0.013648,0,0,0,0
223.05,0.16895,8.0033,0.014595,0,0,0,0
225.55,0.17653,8.0594,0.014561,0,0,0,0
228.05,0.18404,8.1144,0.014628,0,0,0,0
230.55,0.19033,8.1686,0.015965,0,0,0,0
233.05,0.19778,8.223,0.017105,0,0,0,0
235.55,0.20547,8.2751,0.01704,0,0,0,0
238.05,0.21275,8.3279,0.017137,0,0,0,0
240.55,0.22152,8.3774,0.018245,0,0,0,0
243.05,0.22944,8.4297,0.019382,0,0,0,0
245.55,0.23741,8.4786,0.019448,0,0,0,0
248.05,0.24678,8.5289,0.019708,0,0,0,0
250.55,0.2542,8.576,0.020781,0,0,0,0
253.05,0.26258,8.6233,0.021946,0,0,0,0
255.55,0.27109,8.6699,0.02214,0,0,0,0
258.05,0.27913,8.7164,0.022756,0,0,0,0
260.55,0.28916,8.762,0.023564,0,0,0,0
263.05,0.29797,8.8066,0.024502,0,0,0,0
265.55,0.30714,8.8514,0.025212,0,0,0,0
268.05,0.31747,8.8931,0.025729,0,0,0,0
270.55,0.32598,8.9357,0.026438,0,0,0,0
273.05,0.33568,8.9767,0.027502,0,0,0,0
275.55,0.34505,9.0186,0.02837,0,0,0,0
278.05,0.35376,9.0586,0.028949,0,0,0,0
280.55,0.36435,9.0991,0.029657,0,0,0,0
283.05,0.37363,9.1391,0.03062,0,0,0,0
285.55,0.38435,9.178,0.031647,0,0,0,0
288.05,0.39482,9.2153,0.032385,0,0,0,0
290.55,0.40452,9.2526,0.033218,0,0,0,0
293.05,0.41574,9.29,0.034083,0,0,0,0
295.55,0.42524,9.3267,0.035074,0,0,0,0
298.05,0.43594,9.3616,0.036,0,0,0,0
300.55,0.4463,9.3979,0.037022,0,0,0,0
303.05,0.45614,9.4307,0.038011,0,0,0,0
305.55,0.46763,9.4651,0.038744,0,0,0,0
308.05,0.47756,9.4977,0.039763,0,0,0,0
310.55,0.48961,9.5306,0.040878,0,0,0,0
313.05,0.50007,9.5624,0.041832,0,0,0,0
315.55,0.51136,9.5941,0.042688,0,0,0,0
318.05,0.52312,9.6247,0.043768,0,0,0,0
320.55,0.53358,9.6553,0.04472,0,0,0,0
323.05,0.5459,9.6853,0.04589,0,0,0,0
325.55,0.55649,9.7156,0.046744,0,0,0,0
328.05,0.56828,9.7447,0.048042,0,0,0,0
330.55,0.57967,9.7736,0.04924,0,0,0,0
333.05,0.59079,9.8021,0.050059,0,0,0,0
335.55,0.60285,9.8296,0.051034,0,0,0,0
338.05,0.61397,9.8567,0.05245,0,0,0,0
340.55,0.62675,9.8839,0.053707,0,0,0,0
343.05,0.63814,9.9096,0.05471,0,0,0,0
345.55,0.65106,9.9353,0.055962,0,0,0,0
348.05,0.66297,9.96,0.057183,0,0,0,0
350.55,0.67503,9.9851,0.058496,0,0,0,0
353.05,0.68814,10.009,0.059682,0,0,0,0
355.55,0.69969,10.033,0.060866,0,0,0,0
358.05,0.7131,10.056,0.062299,0,0,0,0
360.55,0.72463,10.08,0.063637,0,0,0,0
363.05,0.73774,10.101,0.065125,0,0,0,0
365.55,0.74962,10.124,0.066366,0,0,0,0
368.05,0.7627,10.146,0.067913,0,0,0,0
370.55,0.77532,10.167,0.069553,0,0,0,0
373.05,0.78793,10.188,0.071279,0,0,0,0
375.55,0.80124,10.208,0.072389,0,0,0,0
378.05,0.81369,10.227,0.073838,0,0,0,0
380.55,0.8275,10.247,0.075681,0,0,0,0
383.05,0.83988,10.266,0.077306,0,0,0,0
385.55,0.85402,10.284,0.07896,0,0,0,0
388.05,0.86707,10.302,0.08055,0,0,0,0
390.55,0.88081,10.319,0.082351,0,0,0,0
393.05,0.89405,10.337,0.083905,0,0,0,0
395.55,0.90723,10.354,0.0857,0,0,0,0
398.05,0.92173,10.37,0.087582,0,0,0,0
400.55,0.93491,10.386,0.089492,0,0,0,0
403.05,0.94951,10.401,0.091215,0,0,0,0
405.55,0.96226,10.416,0.093149,0,0,0,0
408.05,0.97715,10.43,0.09526,0,0,0,0
410.55,0.9905,10.445,0.097455,0,0,0,0
413.05,1.0052,10.458,0.099077,0,0,0,0
415.55,1.0189,10.472,0.10105,0,0,0,0
418.05,1.0337,10.484,0.10321,0,0,0,0
420.55,1.0473,10.497,0.10562,0,0,0,0
423.05,1.062,10.508,0.10762,0,0,0,0
425.55,1.0759,10.519,0.1097,0,0,0,0
428.05,1.09,10.529,0.11171,0,0,0,0
430.55,1.1049,10.539,0.11426,0,0,0,0
433.05,1.1185,10.549,0.11668,0,0,0,0
435.55,1.134,10.559,0.11883,0,0,0,0
438.05,1.1476,10.567,0.12144,0,0,0,0
440.55,1.1632,10.576,0.12411,0,0,0,0
443.05,1.1771,10.584,0.12653,0,0,0,0
445.55,1.1931,10.592,0.1291,0,0,0,0
448.05,1.2073,10.598,0.132,0,0,0,0
450.55,1.2234,10.604,0.13493,0,0,0,0
453.05,1.2378,10.61,0.13808,0,0,0,0
455.55,1.254,10.615,0.14076,0,0,0,0
458.05,1.2687,10.62,0.14377,0,0,0,0
460.55,1.285,10.624,0.14687,0,0,0,0
463.05,1.2995,10.628,0.15007,0,0,0,0
465.55,1.3164,10.63,0.15376,0,0,0,0
468.05,1.3312,10.632,0.15702,0,0,0,0
470.55,1.3478,10.634,0.1603,0,0,0,0
473.05,1.3633,10.635,0.16388,0,0,0,0
475.55,1.3798,10.635,0.16756,0,0,0,0
478.05,1.3954,10.635,0.17172,0,0,0,0
480.55,1.4119,10.634,0.17576,0,0,0,0
483.05,1.4281,10.631,0.17945,0,0,0,0
485.55,1.4447,10.628,0.18392,0,0,0,0
488.05,1.4611,10.626,0.1881,0,0,0,0
490.55,1.478,10.621,0.19265,0,0,0,0
493.05,1.4945,10.615,0.19712,0,0,0,0
495.55,1.5107,10.61,0.20181,0,0,0,0
498.05,1.528,10.603,0.20645,0,0,0,0
500.55,1.5447,10.594,0.21156,0,0,0,0
503.05,1.5618,10.586,0.21672,0,0,0,0
505.55,1.5789,10.576,0.22218,0,0,0,0
508.05,1.5956,10.565,0.22702,0,0,0,0
510.55,1.6132,10.554,0.2327,0,0,0,0
513.05,1.63,10.541,0.2382,0,0,0,0
515.55,1.6477,10.527,0.24439,0,0,0,0
518.05,1.6645,10.511,0.25014,0,0,0,0
520.55,1.6824,10.496,0.25649,0,0,0,0
523.05,1.6992,10.479,0.26245,0,0,0,0
525.55,1.7176,10.46,0.26917,0,0,0,0
528.05,1.7346,10.441,0.27578,0,0,0,0
530.55,1.7532,10.419,0.28282,0,0,0,0
533.05,1.7703,10.397,0.28986,0,0,0,0
535.55,1.7891,10.373,0.29675,0,0,0,0
538.05,1.8065,10.348,0.30456,0,0,0,0
540.55,1.8257,10.321,0.31206,0,0,0,0
543.05,1.8429,10.291,0.3194,0,0,0,0
545.55,1.8623,10.262,0.32715,0,0,0,0
548.05,1.8799,10.229,0.33525,0,0,0,0
550.55,1.8992,10.195,0.34336,0,0,0,0
553.05,1.9176,10.158,0.3517,0,0,0,0
555.55,1.9368,10.121,0.35992,0,0,0,0
558.05,1.9557,10.08,0.369,0,0,0,0
560.55,1.975,10.036,0.37812,0,0,0,0
563.05,1.9945,9.99,0.38762,0,0,0,0
565.55,2.0138,9.9394,0.39667,0,0,0,0
568.05,2.034,9.8863,0.40751,0,0,0,0
570.55,2.0528,9.8306,0.41724,0,0,0,0
573.05,2.0736,9.7694,0.42774,0,0,0,0
575.55,2.093,9.7069,0.43784,0,0,0,0
578.05,2.1139,9.6343,0.44889,0,0,0,0
580.55,2.1343,9.559,0.45934,0,0,0,0
583.05,2.1559,9.4693,0.4726,0,0,0,0
584.05,2.166,9.4298,0.47797,0,0,0,0