File: polyN_optimization/DP600_results/DATA/NT6_00_2.csv
Time[s],Displacement[mm],Force[kN],AxStrain_1,AxStrain_2,Thickness[mm],OuterWidth[mm],InnerWidth[mm]
0.6,0,-0.018766,0,0,1.5199,20,10.897
3.1,0.000288,0.049863,-0.00016301,0,0,0,0
5.6,0.000342,0.177,-5e-06,0,0,0,0
8.1,0.00065,0.26472,-0.00012501,0,0,0,0
10.6,0.000935,0.35614,-0.00023603,0,0,0,0
13.1,0.00152,0.44958,-1.2e-05,0,0,0,0
15.6,0.002071,0.53814,-3e-06,0,0,0,0
18.1,0.002055,0.63243,-8.6004e-05,0,0,0,0
20.6,0.002327,0.72685,-0.00015901,0,0,0,0
23.1,0.002877,0.82715,-6.3002e-05,0,0,0,0
25.6,0.003744,0.92556,0.00022497,0,0,0,0
28.1,0.004169,1.0269,-2e-05,0,0,0,0
30.6,0.003941,1.1303,3.9999e-05,0,0,0,0
33.1,0.004398,1.2314,6.9998e-05,0,0,0,0
35.6,0.005654,1.3331,0.00013899,0,0,0,0
38.1,0.006255,1.4334,0.00024497,0,0,0,0
40.6,0.005847,1.5356,0.00029496,0,0,0,0
43.1,0.006162,1.6367,0.00023797,0,0,0,0
45.6,0.007315,1.7391,0.00023497,0,0,0,0
48.1,0.008448,1.8386,0.00042391,0,0,0,0
50.6,0.007869,1.9383,0.00025797,0,0,0,0
53.1,0.007784,2.037,0.00018198,0,0,0,0
55.6,0.009197,2.1349,0.00030095,0,0,0,0
58.1,0.010347,2.2359,0.00055585,0,0,0,0
60.6,0.009701,2.3327,0.00026197,0,0,0,0
63.1,0.009267,2.4351,0.00013199,0,0,0,0
65.6,0.010717,2.5309,0.00026496,0,0,0,0
68.1,0.012244,2.6311,0.00035094,0,0,0,0
70.6,0.011853,2.7283,0.00031795,0,0,0,0
73.1,0.011333,2.8289,0.00036693,0,0,0,0
75.6,0.012452,2.9314,0.00046289,0,0,0,0
78.1,0.014283,3.0287,0.00067477,0,0,0,0
80.6,0.014458,3.1269,0.00052986,0,0,0,0
83.1,0.013756,3.2249,0.0004469,0,0,0,0
85.6,0.014544,3.3241,0.00055285,0,0,0,0
88.1,0.017031,3.4221,0.00070175,0,0,0,0
90.6,0.017571,3.5193,0.00093656,0,0,0,0
93.1,0.016473,3.6161,0.00064179,0,0,0,0
95.6,0.017115,3.7127,0.00049988,0,0,0,0
98.1,0.01942,3.8103,0.00050687,0,0,0,0
100.6,0.020409,3.9073,0.00075771,0,0,0,0
103.1,0.019513,4.0029,0.00059282,0,0,0,0
105.6,0.01972,4.1001,0.00056884,0,0,0,0
108.1,0.021914,4.1926,0.0006258,0,0,0,0
110.6,0.022837,4.2894,0.0010195,0,0,0,0
113.1,0.022792,4.3844,0.00082766,0,0,0,0
115.6,0.022696,4.4807,0.00066178,0,0,0,0
118.1,0.02478,4.5753,0.00092657,0,0,0,0
120.6,0.026138,4.6681,0.0012243,0,0,0,0
123.1,0.026368,4.7617,0.00099251,0,0,0,0
125.6,0.026899,4.8546,0.00099251,0,0,0,0
128.1,0.028953,4.9456,0.0011254,0,0,0,0
130.6,0.030013,5.0384,0.0012572,0,0,0,0
133.1,0.031007,5.1294,0.001389,0,0,0,0
135.6,0.032102,5.2217,0.0012243,0,0,0,0
138.1,0.033695,5.3116,0.0011913,0,0,0,0
140.6,0.034886,5.4049,0.0013231,0,0,0,0
143.1,0.036342,5.4923,0.002017,0,0,0,0
145.6,0.038295,5.5843,0.0016866,0,0,0,0
148.1,0.041043,5.6717,0.0018523,0,0,0,0
150.6,0.041838,5.7616,0.0022814,0,0,0,0
153.1,0.044056,5.8469,0.0024799,0,0,0,0
155.6,0.04813,5.9324,0.0023812,0,0,0,0
158.1,0.051013,6.0167,0.0023812,0,0,0,0
160.6,0.052074,6.0993,0.0030743,0,0,0,0
163.1,0.055124,6.1826,0.0037998,0,0,0,0
165.6,0.059631,6.2621,0.00347,0,0,0,0
168.1,0.062479,6.3416,0.0035696,0,0,0,0
170.6,0.065958,6.4177,0.004459,0,0,0,0
173.1,0.070296,6.4924,0.0053487,0,0,0,0
175.6,0.073808,6.5669,0.0050194,0,0,0,0
178.1,0.077184,6.6413,0.0049537,0,0,0,0
180.6,0.083044,6.7139,0.0061063,0,0,0,0
183.1,0.088208,6.7841,0.0074869,0,0,0,0
185.6,0.092314,6.8556,0.0069279,0,0,0,0
188.1,0.097481,6.9219,0.0069945,0,0,0,0
190.6,0.10278,6.9917,0.008111,0,0,0,0
193.1,0.10752,7.0573,0.0094898,0,0,0,0
195.6,0.11387,7.1249,0.0090965,0,0,0,0
198.1,0.1205,7.1896,0.0087684,0,0,0,0
200.6,0.12534,7.2531,0.0097196,0,0,0,0
203.1,0.13153,7.3167,0.011554,0,0,0,0
205.6,0.13772,7.3783,0.011357,0,0,0,0
208.1,0.14303,7.4406,0.010867,0,0,0,0
210.6,0.15008,7.5014,0.011849,0,0,0,0
213.1,0.15743,7.5601,0.013614,0,0,0,0
215.6,0.16379,7.6186,0.013809,0,0,0,0
218.1,0.17131,7.6751,0.013319,0,0,0,0
220.6,0.17793,7.7341,0.014168,0,0,0,0
223.1,0.18396,7.7893,0.015994,0,0,0,0
225.6,0.19217,7.8466,0.016158,0,0,0,0
228.1,0.19995,7.8994,0.015539,0,0,0,0
230.6,0.207,7.9533,0.016613,0,0,0,0
233.1,0.21624,8.0043,0.018338,0,0,0,0
235.6,0.22362,8.0564,0.018663,0,0,0,0
238.1,0.23104,8.1073,0.018468,0,0,0,0
240.6,0.23961,8.1576,0.019118,0,0,0,0
243.1,0.2465,8.2069,0.020708,0,0,0,0
245.6,0.25494,8.2543,0.021162,0,0,0,0
248.1,0.26428,8.3027,0.02113,0,0,0,0
250.6,0.2718,8.349,0.021844,0,0,0,0
253.1,0.2818,8.3961,0.023073,0,0,0,0
255.6,0.29035,8.4411,0.023882,0,0,0,0
258.1,0.29886,8.4861,0.024172,0,0,0,0
260.6,0.30853,8.5301,0.024916,0,0,0,0
263.1,0.31581,8.5727,0.026077,0,0,0,0
265.6,0.32561,8.6161,0.026883,0,0,0,0
268.1,0.33492,8.6581,0.02727,0,0,0,0
270.6,0.34373,8.7009,0.028107,0,0,0,0
273.1,0.35486,8.7404,0.028879,0,0,0,0
275.6,0.36399,8.7813,0.029779,0,0,0,0
278.1,0.37429,8.8203,0.03055,0,0,0,0
280.6,0.38433,8.8599,0.031384,0,0,0,0
283.1,0.3934,8.8981,0.032153,0,0,0,0
285.6,0.40439,8.9366,0.033243,0,0,0,0
288.1,0.41326,8.9739,0.033915,0,0,0,0
290.6,0.42363,9.0096,0.034939,0,0,0,0
293.1,0.43436,9.0464,0.035993,0,0,0,0
295.6,0.44416,9.0817,0.037143,0,0,0,0
298.1,0.45618,9.1166,0.03778,0,0,0,0
300.6,0.46585,9.1519,0.038641,0,0,0,0
303.1,0.47757,9.1857,0.039882,0,0,0,0
305.6,0.48853,9.2196,0.041058,0,0,0,0
308.1,0.49856,9.2507,0.041599,0,0,0,0
310.6,0.51072,9.2833,0.042456,0,0,0,0
313.1,0.52032,9.3151,0.043883,0,0,0,0
315.6,0.53207,9.3471,0.04496,0,0,0,0
318.1,0.54231,9.3769,0.045877,0,0,0,0
320.6,0.55337,9.4066,0.046825,0,0,0,0
323.1,0.56509,9.4361,0.048215,0,0,0,0
325.6,0.57575,9.4646,0.049382,0,0,0,0
328.1,0.58853,9.4927,0.050075,0,0,0,0
330.6,0.59916,9.5216,0.051176,0,0,0,0
333.1,0.61171,9.5491,0.052623,0,0,0,0
335.6,0.62333,9.5769,0.053722,0,0,0,0
338.1,0.63492,9.6037,0.054505,0,0,0,0
340.6,0.6478,9.6294,0.055821,0,0,0,0
343.1,0.65879,9.6551,0.057353,0,0,0,0
345.6,0.67197,9.6813,0.058385,0,0,0,0
348.1,0.6827,9.7064,0.059571,0,0,0,0
350.6,0.69574,9.7306,0.061004,0,0,0,0
353.1,0.70723,9.7533,0.062187,0,0,0,0
355.6,0.71938,9.7773,0.063369,0,0,0,0
358.1,0.73236,9.7996,0.064766,0,0,0,0
360.6,0.74392,9.822,0.066285,0,0,0,0
363.1,0.75766,9.8446,0.067524,0,0,0,0
365.6,0.76931,9.8654,0.069039,0,0,0,0
368.1,0.78325,9.8873,0.070367,0,0,0,0
370.6,0.79547,9.9074,0.072031,0,0,0,0
373.1,0.80891,9.9283,0.073509,0,0,0,0
375.6,0.82172,9.948,0.075046,0,0,0,0
378.1,0.83457,9.9671,0.076427,0,0,0,0
380.6,0.84825,9.9871,0.078173,0,0,0,0
383.1,0.86073,10.006,0.079672,0,0,0,0
385.6,0.8746,10.024,0.081352,0,0,0,0
388.1,0.88705,10.041,0.082999,0,0,0,0
390.6,0.90139,10.058,0.084613,0,0,0,0
393.1,0.9138,10.075,0.086436,0,0,0,0
395.6,0.92748,10.091,0.088135,0,0,0,0
398.1,0.94029,10.107,0.089892,0,0,0,0
400.6,0.95413,10.123,0.091737,0,0,0,0
403.1,0.96794,10.138,0.093547,0,0,0,0
405.6,0.98098,10.153,0.095535,0,0,0,0
408.1,0.99575,10.168,0.09749,0,0,0,0
410.6,1.0087,10.181,0.099319,0,0,0,0
413.1,1.024,10.194,0.10157,0,0,0,0
415.6,1.037,10.207,0.10342,0,0,0,0
418.1,1.0524,10.22,0.10539,0,0,0,0
420.6,1.0656,10.232,0.10777,0,0,0,0
423.1,1.0811,10.244,0.11008,0,0,0,0
425.6,1.0949,10.255,0.11216,0,0,0,0
428.1,1.1103,10.266,0.11461,0,0,0,0
430.6,1.1242,10.275,0.11667,0,0,0,0
433.1,1.139,10.285,0.11903,0,0,0,0
435.6,1.1536,10.295,0.1217,0,0,0,0
438.1,1.1682,10.304,0.12396,0,0,0,0
440.6,1.1834,10.312,0.12635,0,0,0,0
443.1,1.1977,10.319,0.12918,0,0,0,0
445.6,1.2134,10.327,0.13191,0,0,0,0
448.1,1.2277,10.334,0.13457,0,0,0,0
450.6,1.2438,10.34,0.13732,0,0,0,0
453.1,1.2578,10.347,0.14052,0,0,0,0
455.6,1.2743,10.351,0.14333,0,0,0,0
458.1,1.2888,10.357,0.14631,0,0,0,0
460.6,1.3053,10.361,0.14974,0,0,0,0
463.1,1.3198,10.365,0.15284,0,0,0,0
465.6,1.3365,10.368,0.1559,0,0,0,0
468.1,1.3512,10.37,0.15916,0,0,0,0
470.6,1.3679,10.372,0.16265,0,0,0,0
473.1,1.383,10.373,0.16619,0,0,0,0
475.6,1.4003,10.374,0.17005,0,0,0,0
478.1,1.4152,10.374,0.17393,0,0,0,0
480.6,1.4325,10.373,0.17781,0,0,0,0
483.1,1.4475,10.372,0.18163,0,0,0,0
485.6,1.465,10.37,0.18607,0,0,0,0
488.1,1.4807,10.367,0.19048,0,0,0,0
490.6,1.498,10.363,0.19496,0,0,0,0
493.1,1.5138,10.359,0.19972,0,0,0,0
495.6,1.5316,10.354,0.20431,0,0,0,0
498.1,1.5474,10.348,0.20913,0,0,0,0
500.6,1.5653,10.341,0.21388,0,0,0,0
503.1,1.5813,10.332,0.2187,0,0,0,0
505.6,1.5991,10.324,0.22427,0,0,0,0
508.1,1.6152,10.315,0.22931,0,0,0,0
510.6,1.6333,10.304,0.2348,0,0,0,0
513.1,1.6494,10.292,0.24047,0,0,0,0
515.6,1.6674,10.28,0.24636,0,0,0,0
518.1,1.6836,10.267,0.25234,0,0,0,0
520.6,1.7022,10.253,0.25806,0,0,0,0
523.1,1.7184,10.237,0.26454,0,0,0,0
525.6,1.7372,10.221,0.2708,0,0,0,0
528.1,1.7536,10.203,0.27734,0,0,0,0
530.6,1.7727,10.184,0.28431,0,0,0,0
533.1,1.7892,10.164,0.29137,0,0,0,0
535.6,1.8081,10.142,0.29807,0,0,0,0
538.1,1.8251,10.119,0.30573,0,0,0,0
540.6,1.8441,10.094,0.31261,0,0,0,0
543.1,1.8614,10.069,0.32052,0,0,0,0
545.6,1.8805,10.041,0.32759,0,0,0,0
548.1,1.8984,10.011,0.33569,0,0,0,0
550.6,1.9167,9.9809,0.34356,0,0,0,0
553.1,1.9352,9.9476,0.35212,0,0,0,0
555.6,1.9534,9.9133,0.36021,0,0,0,0
558.1,1.9725,9.8757,0.36847,0,0,0,0
560.6,1.9907,9.8367,0.37715,0,0,0,0
563.1,2.0106,9.7946,0.3861,0,0,0,0
565.6,2.0287,9.7496,0.39537,0,0,0,0
568.1,2.0491,9.7011,0.40461,0,0,0,0
570.6,2.0676,9.65,0.41437,0,0,0,0
573.1,2.0884,9.5951,0.42405,0,0,0,0
575.6,2.1073,9.5356,0.43384,0,0,0,0
578.1,2.1283,9.4721,0.44398,0,0,0,0
580.6,2.1484,9.4036,0.45467,0,0,0,0
583.1,2.1693,9.3291,0.46539,0,0,0,0
585.6,2.1913,9.2476,0.47651,0,0,0,0
588.1,2.2123,9.1596,0.48838,0,0,0,0
590.6,2.2358,9.0631,0.50064,0,0,0,0
593.1,2.258,8.9513,0.51367,0,0,0,0
595.1,2.2781,8.8474,0.52519,0,0,0,0