File: polyN_optimization/DP600_results/DATA/NT6_00_3.csv
Time[s],Displacement[mm],Force[kN],AxStrain_1,AxStrain_2,Thickness[mm],OuterWidth[mm],InnerWidth[mm]
0.59,0,-0.016967,0,0,1.5309,20,9.9056
3.1,0.000515,0.048436,6.3998e-05,0,0,0,0
5.59,0.000752,0.17742,-3.6001e-05,0,0,0,0
8.1,0.001031,0.26258,-6e-06,0,0,0,0
10.59,0.001121,0.35357,-4.2001e-05,0,0,0,0
13.09,0.001771,0.446,3.7999e-05,0,0,0,0
15.6,0.002086,0.53485,0.00019198,0,0,0,0
18.09,0.002258,0.62715,0.00024797,0,0,0,0
20.59,0.002347,0.72442,6.2998e-05,0,0,0,0
23.09,0.002877,0.82429,5.9998e-05,0,0,0,0
25.59,0.003933,0.92428,0.00038693,0,0,0,0
28.09,0.004161,1.0247,0.00027496,0,0,0,0
30.59,0.004135,1.1264,0.00026197,0,0,0,0
33.09,0.004565,1.2291,7.8997e-05,0,0,0,0
35.59,0.005628,1.3326,8.2997e-05,0,0,0,0
38.09,0.006138,1.4371,0.00036393,0,0,0,0
40.59,0.005714,1.5401,0.00032395,0,0,0,0
43.09,0.006045,1.6419,0.00024197,0,0,0,0
45.59,0.008028,1.7431,0.0004369,0,0,0,0
48.09,0.008227,1.8444,0.00028796,0,0,0,0
50.59,0.00782,1.9457,0.00030495,0,0,0,0
53.09,0.00784,2.0469,0.00030095,0,0,0,0
55.59,0.009263,2.1476,0.00017498,0,0,0,0
58.09,0.010485,2.2489,0.00029096,0,0,0,0
60.59,0.0098,2.3446,0.00040392,0,0,0,0
63.09,0.009912,2.4454,0.00014199,0,0,0,0
65.59,0.011286,2.5457,0.00014199,0,0,0,0
68.09,0.012643,2.6467,0.0004499,0,0,0,0
70.59,0.01216,2.7466,0.00047289,0,0,0,0
73.09,0.011832,2.8461,0.00034394,0,0,0,0
75.59,0.013007,2.9471,5.2999e-05,0,0,0,0
78.09,0.014646,3.0469,0.00034394,0,0,0,0
80.59,0.014434,3.1456,0.00053586,0,0,0,0
83.09,0.013885,3.2471,0.0004469,0,0,0,0
85.59,0.015156,3.3457,0.00030095,0,0,0,0
88.09,0.017222,3.4446,0.00046689,0,0,0,0
90.59,0.01701,3.5436,0.00081467,0,0,0,0
93.09,0.016354,3.6414,0.00058883,0,0,0,0
95.59,0.017573,3.7383,0.00065878,0,0,0,0
98.09,0.019463,3.8366,0.00097253,0,0,0,0
100.59,0.019976,3.9339,0.0011284,0,0,0,0
103.09,0.019377,4.0314,0.0007807,0,0,0,0
105.59,0.020327,4.1249,0.0007707,0,0,0,0
108.09,0.022191,4.2234,0.0010954,0,0,0,0
110.59,0.022963,4.3204,0.0011583,0,0,0,0
113.09,0.022479,4.418,0.00099251,0,0,0,0
115.59,0.023439,4.5149,0.00076071,0,0,0,0
118.09,0.025128,4.6104,0.00072774,0,0,0,0
120.59,0.026187,4.7054,0.00099251,0,0,0,0
123.09,0.026551,4.8003,0.0010584,0,0,0,0
125.59,0.027412,4.8939,0.00086063,0,0,0,0
128.09,0.028869,4.9864,0.0010255,0,0,0,0
130.59,0.03016,5.0807,0.0012572,0,0,0,0
133.09,0.030756,5.1737,0.0014889,0,0,0,0
135.59,0.032245,5.2639,0.0013231,0,0,0,0
138.09,0.03357,5.3574,0.001389,0,0,0,0
140.59,0.035126,5.4456,0.0018523,0,0,0,0
143.09,0.036483,5.5393,0.0019521,0,0,0,0
145.59,0.039132,5.6277,0.0017535,0,0,0,0
148.09,0.040556,5.7211,0.0017535,0,0,0,0
150.59,0.04188,5.8089,0.0024799,0,0,0,0
153.09,0.044529,5.8969,0.0026126,0,0,0,0
155.59,0.048038,5.983,0.0024141,0,0,0,0
158.09,0.050124,6.0677,0.0026116,0,0,0,0
160.59,0.05158,6.1527,0.0032726,0,0,0,0
163.09,0.055321,6.232,0.0038336,0,0,0,0
165.59,0.059426,6.3126,0.0036683,0,0,0,0
168.09,0.06234,6.3919,0.0040319,0,0,0,0
170.59,0.065882,6.471,0.0048552,0,0,0,0
173.09,0.070087,6.5481,0.005646,0,0,0,0
175.59,0.073497,6.6219,0.0051527,0,0,0,0
178.09,0.077801,6.6971,0.0054163,0,0,0,0
180.59,0.083694,6.7671,0.0066995,0,0,0,0
183.09,0.088263,6.8403,0.0075544,0,0,0,0
185.59,0.091574,6.9096,0.0071275,0,0,0,0
188.09,0.097468,6.9799,0.0071275,0,0,0,0
190.59,0.10233,7.0477,0.0082439,0,0,0,0
193.09,0.10773,7.1149,0.0093927,0,0,0,0
195.59,0.11432,7.1813,0.0089667,0,0,0,0
198.09,0.11988,7.2457,0.0090331,0,0,0,0
200.59,0.12488,7.3117,0.010442,0,0,0,0
203.09,0.1314,7.3749,0.011393,0,0,0,0
205.59,0.13723,7.4371,0.011457,0,0,0,0
208.09,0.14296,7.497,0.011097,0,0,0,0
210.59,0.15077,7.5574,0.012111,0,0,0,0
213.09,0.15716,7.6167,0.013616,0,0,0,0
215.59,0.16335,7.6756,0.013583,0,0,0,0
218.09,0.17077,7.7343,0.013258,0,0,0,0
220.59,0.17706,7.7901,0.014367,0,0,0,0
223.09,0.18358,7.8466,0.015674,0,0,0,0
225.59,0.19235,7.9004,0.015902,0,0,0,0
228.09,0.19951,7.9564,0.015772,0,0,0,0
230.59,0.20709,8.0086,0.016782,0,0,0,0
233.09,0.21546,8.0623,0.017953,0,0,0,0
235.59,0.22212,8.1137,0.018181,0,0,0,0
238.09,0.2303,8.1643,0.01844,0,0,0,0
240.59,0.23841,8.2139,0.019221,0,0,0,0
243.09,0.24579,8.2627,0.020356,0,0,0,0
245.59,0.25533,8.312,0.020778,0,0,0,0
248.09,0.26331,8.3589,0.021037,0,0,0,0
250.59,0.27158,8.4057,0.021814,0,0,0,0
253.09,0.28105,8.4514,0.022752,0,0,0,0
255.59,0.2889,8.4967,0.023627,0,0,0,0
258.09,0.29757,8.5417,0.024047,0,0,0,0
260.59,0.30668,8.5866,0.02466,0,0,0,0
263.09,0.31495,8.6304,0.025629,0,0,0,0
265.59,0.32535,8.6736,0.026339,0,0,0,0
268.09,0.33409,8.7153,0.027275,0,0,0,0
270.59,0.34373,8.7566,0.02779,0,0,0,0
273.09,0.35419,8.7971,0.028755,0,0,0,0
275.59,0.36283,8.8367,0.029624,0,0,0,0
278.09,0.37336,8.8766,0.030523,0,0,0,0
280.59,0.3823,8.9161,0.031423,0,0,0,0
283.09,0.39183,8.9546,0.032128,0,0,0,0
285.59,0.40253,8.9914,0.033154,0,0,0,0
288.09,0.4117,9.0294,0.033826,0,0,0,0
290.59,0.42296,9.0654,0.034852,0,0,0,0
293.09,0.43289,9.1021,0.035651,0,0,0,0
295.59,0.44329,9.1361,0.036578,0,0,0,0
298.09,0.45474,9.173,0.037629,0,0,0,0
300.59,0.46428,9.2066,0.038491,0,0,0,0
303.09,0.47626,9.2406,0.039448,0,0,0,0
305.59,0.48616,9.2739,0.040591,0,0,0,0
308.09,0.49715,9.3066,0.04129,0,0,0,0
310.59,0.50795,9.3386,0.042243,0,0,0,0
313.09,0.51791,9.3703,0.043606,0,0,0,0
315.59,0.53013,9.4014,0.044494,0,0,0,0
318.09,0.54033,9.4309,0.045157,0,0,0,0
320.59,0.55244,9.46,0.046296,0,0,0,0
323.09,0.5637,9.4901,0.047655,0,0,0,0
325.59,0.57519,9.5194,0.048791,0,0,0,0
328.09,0.58714,9.5479,0.049547,0,0,0,0
330.59,0.59794,9.5757,0.05068,0,0,0,0
333.09,0.61085,9.6037,0.052127,0,0,0,0
335.59,0.62141,9.6297,0.053257,0,0,0,0
338.09,0.63373,9.6569,0.054011,0,0,0,0
340.59,0.64512,9.6831,0.055421,0,0,0,0
343.09,0.65701,9.7093,0.056892,0,0,0,0
345.59,0.66942,9.7334,0.058175,0,0,0,0
348.09,0.68045,9.758,0.059267,0,0,0,0
350.59,0.69379,9.7821,0.060765,0,0,0,0
353.09,0.70495,9.8053,0.062227,0,0,0,0
355.59,0.71803,9.8279,0.063347,0,0,0,0
358.09,0.73005,9.8503,0.064808,0,0,0,0
360.59,0.74249,9.8723,0.066235,0,0,0,0
363.09,0.75527,9.8936,0.067444,0,0,0,0
365.59,0.76673,9.9144,0.069081,0,0,0,0
368.09,0.78027,9.9349,0.070565,0,0,0,0
370.59,0.79186,9.9551,0.07183,0,0,0,0
373.09,0.8053,9.9756,0.073339,0,0,0,0
375.59,0.81719,9.995,0.075184,0,0,0,0
378.09,0.82983,10.014,0.07635,0,0,0,0
380.59,0.84248,10.031,0.077945,0,0,0,0
383.09,0.85467,10.05,0.079902,0,0,0,0
385.59,0.86824,10.067,0.081279,0,0,0,0
388.09,0.88023,10.085,0.082895,0,0,0,0
390.59,0.89456,10.101,0.084508,0,0,0,0
393.09,0.90661,10.118,0.086422,0,0,0,0
395.59,0.92075,10.134,0.088334,0,0,0,0
398.09,0.9335,10.149,0.089486,0,0,0,0
400.59,0.94741,10.165,0.091451,0,0,0,0
403.09,0.96045,10.179,0.093414,0,0,0,0
405.59,0.97396,10.194,0.095313,0,0,0,0
408.09,0.98823,10.208,0.096846,0,0,0,0
410.59,1.0012,10.222,0.098828,0,0,0,0
413.09,1.016,10.235,0.10096,0,0,0,0
415.59,1.0289,10.248,0.10311,0,0,0,0
418.09,1.0445,10.262,0.10535,0,0,0,0
420.59,1.058,10.274,0.10731,0,0,0,0
423.09,1.073,10.285,0.10939,0,0,0,0
425.59,1.0866,10.296,0.11185,0,0,0,0
428.09,1.1016,10.307,0.11404,0,0,0,0
430.59,1.1156,10.317,0.11684,0,0,0,0
433.09,1.1304,10.326,0.11911,0,0,0,0
435.59,1.1447,10.335,0.12131,0,0,0,0
438.09,1.1596,10.344,0.1241,0,0,0,0
440.59,1.1744,10.352,0.12661,0,0,0,0
443.09,1.189,10.36,0.1292,0,0,0,0
445.59,1.2043,10.367,0.13211,0,0,0,0
448.09,1.2186,10.374,0.135,0,0,0,0
450.59,1.2344,10.38,0.13772,0,0,0,0
453.09,1.2489,10.387,0.14077,0,0,0,0
455.59,1.2648,10.392,0.14384,0,0,0,0
458.09,1.2794,10.397,0.14674,0,0,0,0
460.59,1.2961,10.401,0.15005,0,0,0,0
463.09,1.3108,10.404,0.1534,0,0,0,0
465.59,1.3274,10.407,0.15658,0,0,0,0
468.09,1.3423,10.409,0.1602,0,0,0,0
470.59,1.3591,10.411,0.1638,0,0,0,0
473.09,1.3741,10.412,0.16731,0,0,0,0
475.59,1.3914,10.412,0.17088,0,0,0,0
478.09,1.4064,10.412,0.17481,0,0,0,0
480.59,1.4233,10.411,0.17889,0,0,0,0
483.09,1.4389,10.41,0.1832,0,0,0,0
485.59,1.4563,10.408,0.18746,0,0,0,0
488.09,1.4718,10.404,0.19149,0,0,0,0
490.59,1.4895,10.4,0.19607,0,0,0,0
493.09,1.5052,10.396,0.20061,0,0,0,0
495.59,1.5228,10.391,0.2055,0,0,0,0
498.09,1.5389,10.384,0.21039,0,0,0,0
500.59,1.5568,10.377,0.21532,0,0,0,0
503.09,1.5728,10.368,0.22019,0,0,0,0
505.59,1.591,10.359,0.2256,0,0,0,0
508.09,1.6068,10.349,0.23095,0,0,0,0
510.59,1.6249,10.338,0.23614,0,0,0,0
513.09,1.6408,10.327,0.24166,0,0,0,0
515.59,1.6591,10.314,0.2475,0,0,0,0
518.09,1.6754,10.301,0.25376,0,0,0,0
520.59,1.6938,10.287,0.25991,0,0,0,0
523.09,1.7105,10.271,0.26566,0,0,0,0
525.59,1.7288,10.254,0.27222,0,0,0,0
528.09,1.7453,10.236,0.27911,0,0,0,0
530.59,1.7646,10.217,0.28579,0,0,0,0
533.09,1.7812,10.196,0.29274,0,0,0,0
535.59,1.7999,10.175,0.29958,0,0,0,0
538.09,1.8172,10.152,0.30691,0,0,0,0
540.59,1.8359,10.127,0.31422,0,0,0,0
543.09,1.8537,10.101,0.32195,0,0,0,0
545.59,1.8725,10.073,0.32936,0,0,0,0
548.09,1.891,10.044,0.33731,0,0,0,0
550.59,1.909,10.012,0.34501,0,0,0,0
553.09,1.928,9.9796,0.35267,0,0,0,0
555.59,1.9459,9.9444,0.36067,0,0,0,0
558.09,1.9654,9.9074,0.36851,0,0,0,0
560.59,1.9834,9.8679,0.37727,0,0,0,0
563.09,2.003,9.8263,0.38599,0,0,0,0
565.59,2.0215,9.7807,0.39518,0,0,0,0
568.09,2.0417,9.7337,0.40413,0,0,0,0
570.59,2.0604,9.6827,0.41368,0,0,0,0
573.09,2.0811,9.6269,0.42335,0,0,0,0
575.59,2.1002,9.5677,0.43371,0,0,0,0
578.09,2.1205,9.5053,0.44451,0,0,0,0
580.59,2.141,9.4376,0.45412,0,0,0,0
583.09,2.1614,9.3629,0.46491,0,0,0,0
585.59,2.1829,9.2836,0.47585,0,0,0,0
588.09,2.2035,9.1984,0.48755,0,0,0,0
590.59,2.2267,9.1016,0.50048,0,0,0,0
593.09,2.2493,8.9966,0.5138,0,0,0,0
595.59,2.2734,8.8746,-Inf,0,0,0,0
596.59,2.2864,8.8178,-Inf,0,0,0,0