File: polyN_optimization/DP600_results/DATA/NT6_90_3.csv
Time[s],Displacement[mm],Force[kN],AxStrain_1,AxStrain_2,Thickness[mm],OuterWidth[mm],InnerWidth[mm]
0.59,0,-0.020733,0,0,1.5269,20,10
3.09,0.000627,0.052846,6.3998e-05,0,0,0,0
5.59,0.000675,0.18571,4.1999e-05,0,0,0,0
8.09,0.000837,0.27357,-0.00014501,0,0,0,0
10.59,0.001224,0.36772,-9.8005e-05,0,0,0,0
13.09,0.001712,0.46242,3.1e-05,0,0,0,0
15.59,0.002172,0.55272,-0.00024203,0,0,0,0
18.09,0.002261,0.64457,-9.6005e-05,0,0,0,0
20.59,0.002403,0.74543,-0.00012601,0,0,0,0
23.09,0.00296,0.84285,-9.3004e-05,0,0,0,0
25.59,0.004092,0.94615,-5.3001e-05,0,0,0,0
28.09,0.003973,1.0457,0.00014199,0,0,0,0
30.59,0.003923,1.1516,-0.00020902,0,0,0,0
33.09,0.004784,1.254,0.00010299,0,0,0,0
35.59,0.005879,1.357,0.00012599,0,0,0,0
38.09,0.005959,1.4589,0.00018198,0,0,0,0
40.59,0.005711,1.5616,-7.9003e-05,0,0,0,0
43.09,0.006088,1.6623,-0.00020202,0,0,0,0
45.59,0.007512,1.7629,0.00010899,0,0,0,0
48.09,0.008299,1.8664,0.00016899,0,0,0,0
50.59,0.007449,1.9664,1e-05,0,0,0,0
53.09,0.00773,2.0683,-0.00011601,0,0,0,0
55.59,0.009104,2.1681,4.2999e-05,0,0,0,0
58.09,0.010104,2.2704,0.00029796,0,0,0,0
60.59,0.009505,2.3704,0.00023497,0,0,0,0
63.09,0.009591,2.4709,0.00012599,0,0,0,0
65.59,0.010951,2.5733,0.00020898,0,0,0,0
68.09,0.012093,2.6739,0.00032795,0,0,0,0
70.59,0.011229,2.7746,0.00027096,0,0,0,0
73.09,0.011057,2.8736,0.00030795,0,0,0,0
75.59,0.012468,2.9729,0.00047289,0,0,0,0
78.09,0.013931,3.0724,0.00064879,0,0,0,0
80.59,0.013358,3.172,0.0004569,0,0,0,0
83.09,0.012766,3.2701,0.00023497,0,0,0,0
85.59,0.01458,3.3671,0.00039692,0,0,0,0
88.09,0.016308,3.4669,0.00064879,0,0,0,0
90.59,0.015719,3.5674,0.00053985,0,0,0,0
93.09,0.015113,3.6616,0.00026197,0,0,0,0
95.59,0.01643,3.7611,0.00033394,0,0,0,0
98.09,0.018228,3.8584,0.00059882,0,0,0,0
100.59,0.018486,3.9577,0.00049988,0,0,0,0
103.09,0.017715,4.0536,0.00042691,0,0,0,0
105.59,0.019115,4.1531,0.00038393,0,0,0,0
108.09,0.021181,4.2501,0.00056884,0,0,0,0
110.59,0.020771,4.3466,0.00066178,0,0,0,0
113.09,0.020592,4.4419,0.00059582,0,0,0,0
115.59,0.021618,4.5401,0.00036393,0,0,0,0
118.09,0.02377,4.6347,0.00069476,0,0,0,0
120.59,0.024201,4.7286,0.0008936,0,0,0,0
123.09,0.023803,4.8231,0.0006288,0,0,0,0
125.59,0.024797,4.9174,0.00046289,0,0,0,0
128.09,0.02665,5.0116,0.00076071,0,0,0,0
130.59,0.02771,5.1063,0.0011913,0,0,0,0
133.09,0.027975,5.2009,0.00099251,0,0,0,0
135.59,0.028868,5.2951,0.00079468,0,0,0,0
138.09,0.030623,5.3846,0.0010584,0,0,0,0
140.59,0.032179,5.4784,0.001389,0,0,0,0
143.09,0.033272,5.569,0.0011913,0,0,0,0
145.59,0.035192,5.6607,0.0011913,0,0,0,0
148.09,0.036616,5.7516,0.001423,0,0,0,0
150.59,0.037742,5.8414,0.0020509,0,0,0,0
153.09,0.039861,5.9297,0.0017864,0,0,0,0
155.59,0.042973,6.017,0.0017205,0,0,0,0
158.09,0.044363,6.1039,0.0018523,0,0,0,0
160.59,0.045687,6.1914,0.0026784,0,0,0,0
163.09,0.048964,6.2747,0.0027113,0,0,0,0
165.59,0.053169,6.358,0.0023153,0,0,0,0
168.09,0.055387,6.4396,0.002844,0,0,0,0
170.59,0.057539,6.5199,0.0036683,0,0,0,0
173.09,0.062075,6.5994,0.0038336,0,0,0,0
175.59,0.065452,6.6793,0.003735,0,0,0,0
178.09,0.069028,6.7561,0.0041962,0,0,0,0
180.59,0.074126,6.8334,0.0054153,0,0,0,0
183.09,0.078,6.9059,0.005646,0,0,0,0
185.59,0.081179,6.9799,0.0053497,0,0,0,0
188.09,0.086145,7.051,0.0055138,0,0,0,0
190.59,0.092137,7.1226,0.0070938,0,0,0,0
193.09,0.096673,7.1921,0.0075534,0,0,0,0
195.59,0.10184,7.2599,0.0069617,0,0,0,0
198.09,0.10743,7.3263,0.0073569,0,0,0,0
200.59,0.11187,7.3917,0.0087684,0,0,0,0
203.09,0.11736,7.456,0.0095235,0,0,0,0
205.59,0.12458,7.5211,0.0090311,0,0,0,0
208.09,0.13014,7.5827,0.0092937,0,0,0,0
210.59,0.13604,7.6451,0.010704,0,0,0,0
213.09,0.14299,7.7066,0.011752,0,0,0,0
215.59,0.14809,7.7664,0.011065,0,0,0,0
218.09,0.15428,7.8277,0.011261,0,0,0,0
220.59,0.16236,7.8863,0.012897,0,0,0,0
223.09,0.16858,7.9441,0.013747,0,0,0,0
225.59,0.1764,8.0004,0.013421,0,0,0,0
228.09,0.18398,8.0557,0.013748,0,0,0,0
230.59,0.1901,8.1111,0.015053,0,0,0,0
233.09,0.19782,8.1633,0.01603,0,0,0,0
235.59,0.2049,8.2169,0.015574,0,0,0,0
238.09,0.21179,8.2684,0.0159,0,0,0,0
240.59,0.22103,8.3206,0.017398,0,0,0,0
243.09,0.22848,8.37,0.01847,0,0,0,0
245.59,0.23632,8.4196,0.018308,0,0,0,0
248.09,0.2453,8.4684,0.018535,0,0,0,0
250.59,0.25238,8.517,0.019803,0,0,0,0
253.09,0.26079,8.565,0.020808,0,0,0,0
255.59,0.26966,8.6123,0.020937,0,0,0,0
258.09,0.27748,8.6581,0.021522,0,0,0,0
260.59,0.28754,8.704,0.022461,0,0,0,0
263.09,0.29645,8.7481,0.023464,0,0,0,0
265.59,0.30496,8.7926,0.023756,0,0,0,0
268.09,0.31522,8.8359,0.024337,0,0,0,0
270.59,0.32343,8.879,0.025081,0,0,0,0
273.09,0.33313,8.9207,0.026371,0,0,0,0
275.59,0.34207,8.9623,0.02692,0,0,0,0
278.09,0.35058,9.0033,0.027501,0,0,0,0
280.59,0.36134,9.0431,0.028241,0,0,0,0
283.09,0.37035,9.0824,0.029303,0,0,0,0
285.59,0.38084,9.1211,0.030076,0,0,0,0
288.09,0.39117,9.16,0.030848,0,0,0,0
290.59,0.40051,9.1979,0.03181,0,0,0,0
293.09,0.41157,9.2347,0.03261,0,0,0,0
295.59,0.42107,9.2714,0.033572,0,0,0,0
298.09,0.4314,9.3081,0.034148,0,0,0,0
300.59,0.44153,9.3434,0.035011,0,0,0,0
303.09,0.45113,9.3777,0.036129,0,0,0,0
305.59,0.46296,9.4126,0.037087,0,0,0,0
308.09,0.47265,9.4447,0.038043,0,0,0,0
310.59,0.48414,9.4786,0.038744,0,0,0,0
313.09,0.49523,9.5111,0.039795,0,0,0,0
315.59,0.50557,9.5446,0.040812,0,0,0,0
318.09,0.51758,9.5751,0.041637,0,0,0,0
320.59,0.52768,9.6063,0.042717,0,0,0,0
323.09,0.53964,9.6367,0.0437,0,0,0,0
325.59,0.55013,9.6669,0.044777,0,0,0,0
328.09,0.56109,9.6969,0.045884,0,0,0,0
330.59,0.57268,9.7266,0.046707,0,0,0,0
333.09,0.58331,9.7557,0.048097,0,0,0,0
335.59,0.59599,9.7829,0.04901,0,0,0,0
338.09,0.60672,9.8117,0.05005,0,0,0,0
340.59,0.6194,9.8389,0.051153,0,0,0,0
343.09,0.63105,9.866,0.052474,0,0,0,0
345.59,0.64314,9.8919,0.053573,0,0,0,0
348.09,0.65572,9.9177,0.054891,0,0,0,0
350.59,0.66704,9.9436,0.056143,0,0,0,0
353.09,0.68039,9.968,0.057208,0,0,0,0
355.59,0.69154,9.9936,0.058614,0,0,0,0
358.09,0.70459,10.017,0.059831,0,0,0,0
360.59,0.71621,10.041,0.061141,0,0,0,0
363.09,0.72863,10.065,0.062666,0,0,0,0
365.59,0.74141,10.088,0.064035,0,0,0,0
368.09,0.75319,10.109,0.065463,0,0,0,0
370.59,0.76664,10.131,0.066827,0,0,0,0
373.09,0.77842,10.153,0.068159,0,0,0,0
375.59,0.79243,10.174,0.069642,0,0,0,0
378.09,0.80415,10.194,0.070937,0,0,0,0
380.59,0.81799,10.214,0.07248,0,0,0,0
383.09,0.83084,10.233,0.074112,0,0,0,0
385.59,0.84372,10.253,0.075493,0,0,0,0
388.09,0.85762,10.272,0.076967,0,0,0,0
390.59,0.87014,10.29,0.078681,0,0,0,0
393.09,0.88441,10.307,0.080456,0,0,0,0
395.59,0.89686,10.325,0.081922,0,0,0,0
398.09,0.91146,10.343,0.083293,0,0,0,0
400.59,0.9244,10.36,0.085332,0,0,0,0
403.09,0.93861,10.375,0.087217,0,0,0,0
405.59,0.95162,10.392,0.088824,0,0,0,0
408.09,0.96602,10.408,0.090519,0,0,0,0
410.59,0.97947,10.422,0.092512,0,0,0,0
413.09,0.99324,10.436,0.094534,0,0,0,0
415.59,1.0073,10.45,0.096609,0,0,0,0
418.09,1.0205,10.464,0.098502,0,0,0,0
420.59,1.0354,10.477,0.10042,0,0,0,0
423.09,1.0485,10.49,0.10242,0,0,0,0
425.59,1.0637,10.501,0.10449,0,0,0,0
428.09,1.0767,10.513,0.10657,0,0,0,0
430.59,1.0922,10.525,0.10871,0,0,0,0
433.09,1.1056,10.536,0.11094,0,0,0,0
435.59,1.121,10.545,0.11342,0,0,0,0
438.09,1.1349,10.555,0.11561,0,0,0,0
440.59,1.1503,10.565,0.1182,0,0,0,0
443.09,1.1645,10.574,0.12061,0,0,0,0
445.59,1.1797,10.583,0.12307,0,0,0,0
448.09,1.1947,10.59,0.12562,0,0,0,0
450.59,1.2096,10.598,0.12833,0,0,0,0
453.09,1.2252,10.604,0.13104,0,0,0,0
455.59,1.2398,10.61,0.13364,0,0,0,0
458.09,1.2558,10.616,0.13662,0,0,0,0
460.59,1.2703,10.622,0.13963,0,0,0,0
463.09,1.2864,10.626,0.14256,0,0,0,0
465.59,1.3013,10.63,0.14574,0,0,0,0
468.09,1.3178,10.634,0.14877,0,0,0,0
470.59,1.3324,10.636,0.15219,0,0,0,0
473.09,1.3493,10.639,0.15542,0,0,0,0
475.59,1.3641,10.641,0.15882,0,0,0,0
478.09,1.3813,10.642,0.16257,0,0,0,0
480.59,1.3961,10.642,0.16614,0,0,0,0
483.09,1.4137,10.642,0.16995,0,0,0,0
485.59,1.4288,10.64,0.17404,0,0,0,0
488.09,1.4462,10.638,0.17818,0,0,0,0
490.59,1.4616,10.636,0.18235,0,0,0,0
493.09,1.4795,10.632,0.1867,0,0,0,0
495.59,1.495,10.627,0.19112,0,0,0,0
498.09,1.5127,10.621,0.19554,0,0,0,0
500.59,1.5281,10.615,0.20081,0,0,0,0
503.09,1.5461,10.608,0.20549,0,0,0,0
505.59,1.5619,10.6,0.2106,0,0,0,0
508.09,1.5797,10.591,0.2156,0,0,0,0
510.59,1.5958,10.581,0.22093,0,0,0,0
513.09,1.6141,10.57,0.22617,0,0,0,0
515.59,1.6299,10.557,0.23201,0,0,0,0
518.09,1.6484,10.545,0.23825,0,0,0,0
520.59,1.6646,10.531,0.2441,0,0,0,0
523.09,1.6831,10.514,0.25052,0,0,0,0
525.59,1.7,10.498,0.25673,0,0,0,0
528.09,1.7186,10.48,0.26345,0,0,0,0
530.59,1.7352,10.461,0.2705,0,0,0,0
533.09,1.7538,10.439,0.2768,0,0,0,0
535.59,1.7712,10.418,0.28403,0,0,0,0
538.09,1.7896,10.393,0.29136,0,0,0,0
540.59,1.8075,10.369,0.29827,0,0,0,0
543.09,1.8255,10.341,0.30593,0,0,0,0
545.59,1.8438,10.313,0.313,0,0,0,0
548.09,1.8619,10.283,0.32085,0,0,0,0
550.59,1.8806,10.25,0.32871,0,0,0,0
553.09,1.8984,10.216,0.33711,0,0,0,0
555.59,1.918,10.181,0.34596,0,0,0,0
558.09,1.9357,10.141,0.35471,0,0,0,0
560.59,1.9557,10.101,0.36323,0,0,0,0
563.09,1.9739,10.057,0.37229,0,0,0,0
565.59,1.9941,10.01,0.38084,0,0,0,0
568.09,2.0128,9.9611,0.39052,0,0,0,0
570.59,2.0332,9.9084,0.40055,0,0,0,0
573.09,2.0529,9.8513,0.40957,0,0,0,0
575.59,2.073,9.7899,0.41992,0,0,0,0
578.09,2.0935,9.7241,0.42934,0,0,0,0
580.59,2.1135,9.653,0.44069,0,0,0,0
583.09,2.1358,9.575,0.45211,0,0,0,0
585.59,2.1568,9.4846,0.46385,0,0,0,0
586.09,2.1619,9.4623,0.46708,0,0,0,0