File: polyN_optimization/results_exp/AA7020-T6/_SL_240_SH2_90_1.csv
Time[s];Displacement[mm];Force[kN];AxStrain_1;AxStrain_2;Thickness[mm];Width[mm];Inner width
0;0;0.0054;0;0;1.022;20;0
1;-6.20E-04;0.0051;0;0;0;0;0
2;-0.00111254;0.0038;0;0;0;0;0
2.9999;-0.001308383;0.0003;0;0;0;0;0
3.9999;-4.06E-04;0.0063;0;0;0;0;0
5.0002;0.004919405;0.0259;0;0;0;0;0
6.0001;0.0108722;0.0481;0;0;0;0;0
6.9998;0.0162419;0.074;0;0;0;0;0
7.9998;0.0215478;0.0929;0;0;0;0;0
9;0.0273488;0.1173;0;0;0;0;0
10;0.032995;0.1438;0;0;0;0;0
10.9998;0.0387626;0.1571;0;0;0;0;0
11.9997;0.0449649;0.1745;0;0;0;0;0
12.9999;0.0500107;0.1975;0;0;0;0;0
13.9997;0.0554773;0.2159;0;0;0;0;0
14.9998;0.0619652;0.2323;0;0;0;0;0
15.9997;0.06817516;0.2475;0;0;0;0;0
16.9996;0.0741597;0.2623;0;0;0;0;0
17.9998;0.079538;0.2762;0;0;0;0;0
18.9997;0.0854691;0.2901;0;0;0;0;0
19.9999;0.0920102;0.3006;0;0;0;0;0
20.9996;0.0966174;0.3119;0;0;0;0;0
21.9995;0.104676;0.3258;0;0;0;0;0
22.9995;1.12E-01;0.3277;0;0;0;0;0
23.9998;0.117827;0.3397;0;0;0;0;0
24.9998;1.22E-01;0.3492;0;0;0;0;0
25.9996;0.129724;0.3578;0;0;0;0;0
26.9994;0.136526;0.3657;0;0;0;0;0
27.9994;1.42E-01;0.3698;0;0;0;0;0
28.9995;0.147832;0.3698;0;0;0;0;0
29.9997;1.54E-01;0.3799;0;0;0;0;0
30.9995;0.160463;0.3862;0;0;0;0;0
31.9994;0.167378;0.395;0;0;0;0;0
32.9995;0.173539;0.4026;0;0;0;0;0
33.9996;1.81E-01;0.402;0;0;0;0;0
34.9996;1.89E-01;0.415;0;0;0;0;0
35.9994;1.95E-01;0.4162;0;0;0;0;0
36.9994;2.01E-01;0.4077;0;0;0;0;0
37.9995;0.206691;0.4191;0;0;0;0;0
38.9993;2.13E-01;0.4241;0;0;0;0;0
39.9995;0.22011;0.4276;0;0;0;0;0
40.9993;0.226415;0.4279;0;0;0;0;0
41.9993;0.232884;0.4361;0;0;0;0;0
42.9994;0.239389;0.4415;0;0;0;0;0
43.9992;2.46E-01;0.4415;0;0;0;0;0
44.9992;2.54E-01;0.4431;0;0;0;0;0
45.9992;2.60E-01;0.4399;0;0;0;0;0
46.9991;2.66E-01;0.4497;0;0;0;0;0
47.9991;0.272526;0.4475;0;0;0;0;0
48.9992;2.79E-01;0.451;0;0;0;0;0
49.9991;2.85E-01;0.45;0;0;0;0;0
50.9994;2.92E-01;0.4611;0;0;0;0;0
51.999;2.98E-01;0.457;0;0;0;0;0
52.9992;0.305749;0.4595;0;0;0;0;0
53.9993;0.31197;0.4614;0;0;0;0;0
54.9991;0.318476;0.4567;0;0;0;0;0
55.999;0.325088;0.4583;0;0;0;0;0
56.9991;3.32E-01;0.4602;0;0;0;0;0
57.9989;3.39E-01;0.4589;0;0;0;0;0
58.999;0.346425;0.4646;0;0;0;0;0
59.9992;0.353496;0.4639;0;0;0;0;0
60.999;0.358949;0.4639;0;0;0;0;0
61.9989;3.65E-01;0.4665;0;0;0;0;0
62.9988;0.372409;0.4579;0;0;0;0;0
63.9989;0.378709;0.463;0;0;0;0;0
64.9991;3.86E-01;0.4627;0;0;0;0;0
65.9989;0.391727;0.463;0;0;0;0;0
66.9988;3.99E-01;0.4633;0;0;0;0;0
67.9987;0.405396;0.463;0;0;0;0;0
68.9988;0.412335;0.4595;0;0;0;0;0
69.9988;0.418791;0.4611;0;0;0;0;0
70.9988;0.42563;0.4614;0;0;0;0;0
71.9988;0.433211;0.4592;0;0;0;0;0
72.9989;4.39E-01;0.4567;0;0;0;0;0
73.9987;0.444998;0.4586;0;0;0;0;0
74.9989;4.53E-01;0.4589;0;0;0;0;0
75.9987;0.459133;0.4564;0;0;0;0;0
76.9986;0.466659;0.4529;0;0;0;0;0
77.9988;0.471994;0.4564;0;0;0;0;0
78.9987;0.479497;0.4554;0;0;0;0;0
79.9987;0.48585;0.4551;0;0;0;0;0
80.9988;0.493098;0.4586;0;0;0;0;0
81.9986;0.499455;0.456;0;0;0;0;0
82.9987;5.06E-01;0.4519;0;0;0;0;0
83.9986;5.13E-01;0.4491;0;0;0;0;0
84.9985;5.20E-01;0.4481;0;0;0;0;0
85.9985;5.27E-01;0.4529;0;0;0;0;0
86.9984;0.533251;0.4481;0;0;0;0;0
87.9984;5.39E-01;0.444;0;0;0;0;0
88.9985;0.546436;0.4437;0;0;0;0;0
89.9985;0.55312;0.4456;0;0;0;0;0
90.9987;0.560408;0.4462;0;0;0;0;0
91.9983;5.68E-01;0.445;0;0;0;0;0
92.9983;5.74E-01;0.444;0;0;0;0;0
93.9984;5.81E-01;0.4431;0;0;0;0;0
94.9986;0.58786;0.4447;0;0;0;0;0
95.9984;0.594491;0.4437;0;0;0;0;0
96.9982;6.01E-01;0.4421;0;0;0;0;0
97.9985;0.607532;0.4415;0;0;0;0;0
98.9983;0.614108;0.4462;0;0;0;0;0
99.9983;6.21E-01;0.4434;0;0;0;0;0
100.9983;6.28E-01;0.4443;0;0;0;0;0
101.9983;0.634451;0.4412;0;0;0;0;0
102.9982;6.42E-01;0.4412;0;0;0;0;0
103.9984;0.647565;0.433;0;0;0;0;0
104.9982;6.54E-01;0.4361;0;0;0;0;0
105.9982;0.660737;0.4383;0;0;0;0;0
106.9981;0.668133;0.4409;0;0;0;0;0
107.9981;0.674704;0.4383;0;0;0;0;0
108.9981;0.680553;0.4393;0;0;0;0;0
109.9981;0.687602;0.4358;0;0;0;0;0
110.9981;6.94E-01;0.4339;0;0;0;0;0
111.998;7.02E-01;0.4333;0;0;0;0;0
112.998;7.08E-01;0.4289;0;0;0;0;0
113.9981;0.715049;0.4339;0;0;0;0;0
114.998;0.72283;0.4383;0;0;0;0;0
115.9983;0.728875;0.4248;0;0;0;0;0
116.9979;0.735514;0.4314;0;0;0;0;0
117.9979;0.742049;0.4327;0;0;0;0;0
118.998;0.748543;0.4346;0;0;0;0;0
119.998;0.756397;0.4311;0;0;0;0;0
120.9983;0.762877;0.4298;0;0;0;0;0
121.9979;0.769453;0.4301;0;0;0;0;0
122.998;0.775176;0.4263;0;0;0;0;0
123.9979;0.783311;0.4263;0;0;0;0;0
124.9979;7.90E-01;0.4276;0;0;0;0;0
125.9979;7.96E-01;0.4304;0;0;0;0;0
126.9977;8.04E-01;0.4244;0;0;0;0;0
127.9979;0.809531;0.426;0;0;0;0;0
128.9978;0.817877;0.4229;0;0;0;0;0
129.998;0.824299;0.4225;0;0;0;0;0
130.9978;0.831866;0.4203;0;0;0;0;0
131.9977;8.38E-01;0.4235;0;0;0;0;0
132.9977;0.843509;0.4188;0;0;0;0;0
133.9979;0.850831;0.4244;0;0;0;0;0
134.9979;0.858152;0.4248;0;0;0;0;0
135.9977;0.864689;0.42;0;0;0;0;0
136.9976;0.871467;0.4213;0;0;0;0;0
137.9978;8.78E-01;0.4213;0;0;0;0;0
138.9979;0.884953;0.4175;0;0;0;0;0
139.9976;0.890813;0.4194;0;0;0;0;0
140.9976;8.99E-01;0.4083;0;0;0;0;0
141.9976;0.905652;0.4178;0;0;0;0;0
142.9975;0.912495;0.4156;0;0;0;0;0
143.9976;0.918863;0.4172;0;0;0;0;0
144.9975;0.925332;0.4153;0;0;0;0;0
145.9975;0.932684;0.4153;0;0;0;0;0
146.9975;9.39E-01;0.4109;0;0;0;0;0
147.9974;0.945949;0.4071;0;0;0;0;0
148.9975;0.951854;0.4112;0;0;0;0;0
149.9975;0.95942;0.4096;0;0;0;0;0
150.9975;0.966482;0.4156;0;0;0;0;0
151.9973;0.972716;0.4115;0;0;0;0;0
152.9973;0.97918;0.4077;0;0;0;0;0
153.9974;0.986526;0.4109;0;0;0;0;0
154.9976;0.992818;0.415;0;0;0;0;0
155.9976;0.999738;0.4061;0;0;0;0;0
156.9972;1.0069;0.4061;0;0;0;0;0
157.9972;1.01348;0.409;0;0;0;0;0
158.9973;1.02194;0.3988;0;0;0;0;0
159.9973;1.02759;0.4048;0;0;0;0;0
160.9975;1.03E+00;0.4067;0;0;0;0;0
161.9971;1.04106;0.4004;0;0;0;0;0
162.9971;1.04772;0.4004;0;0;0;0;0
163.9972;1.05554;0.3944;0;0;0;0;0
164.9972;1.06151;0.3979;0;0;0;0;0
165.9972;1.06918;0.3969;0;0;0;0;0
166.9971;1.07598;0.3976;0;0;0;0;0
167.9973;1.08E+00;0.3941;0;0;0;0;0
168.9973;1.0881;0.3922;0;0;0;0;0
169.9973;1.09468;0.389;0;0;0;0;0
170.9973;1.10334;0.3903;0;0;0;0;0
171.997;1.11196;0.3846;0;0;0;0;0
172.997;1.11794;0.3811;0;0;0;0;0
173.9972;1.12E+00;0.3789;0;0;0;0;0
174.997;1.13051;0.3736;0;0;0;0;0
175.997;1.13776;0.3717;0;0;0;0;0
176.997;1.14E+00;0.3729;0;0;0;0;0
177.9969;1.15106;0.3619;0;0;0;0;0
178.997;1.15727;0.359;0;0;0;0;0
179.997;1.1654;0.3578;0;0;0;0;0
180.9969;1.17171;0.3527;0;0;0;0;0
181.9968;1.17847;0.3464;0;0;0;0;0
182.997;1.18693;0.3366;0;0;0;0;0
183.9969;1.19239;0.3366;0;0;0;0;0
184.9971;1.19997;0.335;0;0;0;0;0
185.9971;1.20685;0.3255;0;0;0;0;0
186.9969;1.21349;0.3198;0;0;0;0;0
187.9967;1.22077;0.3186;0;0;0;0;0
188.997;1.227;0.311;0;0;0;0;0
189.997;1.23E+00;0.3059;0;0;0;0;0
190.997;1.24163;0.3015;0;0;0;0;0
191.9966;1.24781;0.2923;0;0;0;0;0
192.9966;1.25587;0.2867;0;0;0;0;0
193.9969;1.26282;0.2832;0;0;0;0;0
194.9967;1.26894;0.2759;0;0;0;0;0
195.9967;1.28E+00;0.2734;0;0;0;0;0
196.9967;1.28305;0.2655;0;0;0;0;0
197.9968;1.28997;0.2642;0;0;0;0;0
198.9966;1.30E+00;0.2525;0;0;0;0;0
199.9966;1.30E+00;0.2547;0;0;0;0;0
200.9966;1.3112;0.2532;0;0;0;0;0
201.9965;1.31737;0.2525;0;0;0;0;0
202.9965;1.32519;0.2437;0;0;0;0;0
203.9967;1.33214;0.2383;0;0;0;0;0
204.9965;1.33866;0.2216;0;0;0;0;0
205.9965;1.34585;0.232;0;0;0;0;0
206.9964;1.35245;0.2285;0;0;0;0;0
207.9964;1.36063;0.2282;0;0;0;0;0
208.9965;1.36631;0.2165;0;0;0;0;0
209.9967;1.37373;0.2155;0;0;0;0;0
210.9964;1.3802;0.2092;0;0;0;0;0
211.9965;1.38658;0.2127;0;0;0;0;0
212.9963;1.3941;0.2058;0;0;0;0;0
213.9964;1.40098;0.2029;0;0;0;0;0
214.9964;1.40763;0.2016;0;0;0;0;0
215.9963;1.41553;0.1931;0;0;0;0;0
216.9964;1.42166;0.1903;0;0;0;0;0
217.9962;1.42921;0.1843;0;0;0;0;0
218.9963;1.43568;0.1811;0;0;0;0;0
219.9963;1.44E+00;0.183;0;0;0;0;0
220.9963;1.44923;0.1792;0;0;0;0;0
221.9961;1.45656;0.1716;0;0;0;0;0
222.9961;1.46376;0.1704;0;0;0;0;0
223.9962;1.47077;0.1618;0;0;0;0;0
224.9962;1.47732;0.1587;0;0;0;0;0
225.9962;1.48481;0.1546;0;0;0;0;0
226.996;1.49179;0.1489;0;0;0;0;0
227.9961;1.4982;0.1407;0;0;0;0;0
228.9963;1.50535;0.1429;0;0;0;0;0
229.9963;1.51322;0.1353;0;0;0;0;0
230.9961;1.52E+00;0.122;0;0;0;0;0
231.996;1.52744;0.1113;0;0;0;0;0
232.996;1.53392;0.1081;0;0;0;0;0
233.996;1.54098;0.0948;0;0;0;0;0
234.996;1.54864;0.092;0;0;0;0;0
235.996;1.55513;0.0901;0;0;0;0;0
236.996;1.56247;0.0784;0;0;0;0;0
237.9961;1.56974;0.0771;0;0;0;0;0
238.996;1.57703;0.0661;0;0;0;0;0
239.996;1.58E+00;0.0676;0;0;0;0;0
240.9962;1.59122;0.0607;0;0;0;0;0
241.9958;1.60E+00;0.0563;0;0;0;0;0
242.9958;1.60541;0.0503;0;0;0;0;0
243.9959;1.61226;0.0522;0;0;0;0;0
244.9959;1.61913;0.0458;0;0;0;0;0
245.9961;1.62579;0.0446;0;0;0;0;0
246.9959;1.63229;0.0364;0;0;0;0;0
247.9957;1.63906;0.0281;0;0;0;0;0
248.9958;1.64644;0.036;0;0;0;0;0
249.9958;1.65272;0.0351;0;0;0;0;0
250.996;1.65971;0.0335;0;0;0;0;0
251.9956;1.66682;0.0297;0;0;0;0;0
252.9958;1.67318;0.0237;0;0;0;0;0
253.9957;1.68066;0.0288;0;0;0;0;0
254.9957;1.68824;0.0199;0;0;0;0;0
255.9957;1.69462;0.025;0;0;0;0;0
256.9957;1.7005;0.0215;0;0;0;0;0
257.9956;1.70792;0.0136;0;0;0;0;0
258.9956;1.71501;0.0215;0;0;0;0;0
259.9956;1.72091;0.0142;0;0;0;0;0
260.9956;1.72873;0.0127;0;0;0;0;0
261.9955;1.73457;0.0165;0;0;0;0;0
262.9955;1.74107;0.0139;0;0;0;0;0
263.9955;1.74813;0.0048;0;0;0;0;0
264.9955;1.75511;0.0133;0;0;0;0;0
265.9955;1.76146;0.0057;0;0;0;0;0
266.9954;1.76865;0.0035;0;0;0;0;0
267.9956;1.77548;-0.0022;0;0;0;0;0
268.9955;1.78284;0.0051;0;0;0;0;0
269.9954;1.78871;0.0076;0;0;0;0;0
270.9957;1.79619;0.006;0;0;0;0;0
271.9953;1.80252;-0.0019;0;0;0;0;0
272.9955;1.80993;0.0076;0;0;0;0;0
273.9954;1.81587;-0.0019;0;0;0;0;0
274.9956;1.82382;0.0013;0;0;0;0;0
;;;0;0;0;0;0
;;;0;0;0;0;0
;;;0;0;0;0;0
;;;0;0;0;0;0
;;;0;0;0;0;0
;;;0;0;0;0;0