File: polyN_optimization/results_exp/AA7020-T6/_SL_320_SH2_90_1.csv
Time[s];Displacement[mm];Force[kN];AxStrain_1;AxStrain_2;Thickness[mm];Width[mm];Inner width
0;0;0.0003;0;0;1.022;20;0
1.5001;-0.000357399;0;0;0;0;0;0
3;-0.000613595;0.0007;0;0;0;0;0
4.5003;-0.000922623;0;0;0;0;0;0
6;-0.000277099;0.0022;0;0;0;0;0
7.5001;-0.000560763;0;0;0;0;0;0
9.0002;0.003616758;0.0221;0;0;0;0;0
10.5;0.0114578;0.0515;0;0;0;0;0
11.9999;0.0215068;0.0812;0;0;0;0;0
13.4998;0.0288961;0.1053;0;0;0;0;0
15;0.038259;0.1271;0;0;0;0;0
16.4999;4.65E-02;0.1514;0;0;0;0;0
17.9997;0.0550447;0.1681;0;0;0;0;0
19.4998;6.40E-02;0.1836;0;0;0;0;0
21;0.0745955;0.1906;0;0;0;0;0
22.4997;0.08395529;0.1928;0;0;0;0;0
24;0.09263663;0.1969;0;0;0;0;0
25.4996;0.103244;0.1944;0;0;0;0;0
26.9997;0.113366;0.1969;0;0;0;0;0
28.4996;0.122702;0.201;0;0;0;0;0
29.9995;1.32E-01;0.1956;0;0;0;0;0
31.4996;1.43E-01;0.195;0;0;0;0;0
32.9995;0.152465;0.1953;0;0;0;0;0
34.4998;1.63E-01;0.1963;0;0;0;0;0
35.9997;1.72E-01;0.1893;0;0;0;0;0
37.4996;0.18256;0.1922;0;0;0;0;0
38.9995;1.92E-01;0.1877;0;0;0;0;0
40.4993;0.203668;0.1871;0;0;0;0;0
41.9994;0.212045;0.1833;0;0;0;0;0
43.4993;2.23E-01;0.1893;0;0;0;0;0
44.9994;2.32E-01;0.1855;0;0;0;0;0
46.4996;0.24172;0.1798;0;0;0;0;0
47.9992;0.251448;0.177;0;0;0;0;0
49.4993;0.261903;0.176;0;0;0;0;0
50.9993;2.72E-01;0.1741;0;0;0;0;0
52.4993;0.280595;0.1767;0;0;0;0;0
53.9992;0.29256;0.1729;0;0;0;0;0
55.4991;0.302412;0.1732;0;0;0;0;0
56.9992;3.13E-01;0.1688;0;0;0;0;0
58.4991;0.321777;0.1681;0;0;0;0;0
59.999;0.331617;0.1707;0;0;0;0;0
61.4991;0.341969;0.1653;0;0;0;0;0
62.999;0.352343;0.1659;0;0;0;0;0
64.4992;0.361694;0.1653;0;0;0;0;0
65.9992;0.371309;0.1662;0;0;0;0;0
67.4991;3.82E-01;0.1628;0;0;0;0;0
68.999;0.390665;0.165;0;0;0;0;0
70.4988;0.40289;0.1602;0;0;0;0;0
71.9989;0.413156;0.1615;0;0;0;0;0
73.4988;4.22E-01;0.159;0;0;0;0;0
74.9989;4.32E-01;0.1568;0;0;0;0;0
76.499;0.440922;0.1565;0;0;0;0;0
77.9989;0.451057;0.158;0;0;0;0;0
79.499;0.461872;0.1555;0;0;0;0;0
80.9988;0.471554;0.1552;0;0;0;0;0
82.4986;4.83E-01;0.1552;0;0;0;0;0
83.9989;4.92E-01;0.1517;0;0;0;0;0
85.4988;0.501312;0.1511;0;0;0;0;0
86.9987;0.51099;0.1523;0;0;0;0;0
88.4988;0.521122;0.1492;0;0;0;0;0
89.9987;0.531329;0.1508;0;0;0;0;0
91.4988;0.541462;0.1498;0;0;0;0;0
92.9986;5.52E-01;0.1498;0;0;0;0;0
94.4987;0.560992;0.1473;0;0;0;0;0
95.9987;0.570742;0.1486;0;0;0;0;0
97.4984;0.580869;0.1495;0;0;0;0;0
98.9987;0.590602;0.147;0;0;0;0;0
100.4985;0.600689;0.1479;0;0;0;0;0
101.9984;0.611206;0.1463;0;0;0;0;0
103.4983;6.21E-01;0.1476;0;0;0;0;0
104.9984;6.31E-01;0.1448;0;0;0;0;0
106.4985;6.40E-01;0.146;0;0;0;0;0
107.9983;0.650601;0.1438;0;0;0;0;0
109.4982;0.661064;0.1451;0;0;0;0;0
110.9983;6.71E-01;0.1473;0;0;0;0;0
112.4983;0.680996;0.1422;0;0;0;0;0
113.9982;0.690667;0.1429;0;0;0;0;0
115.4982;0.701209;0.1444;0;0;0;0;0
116.9982;0.711116;0.146;0;0;0;0;0
118.4983;7.22E-01;0.147;0;0;0;0;0
119.998;0.730963;0.1489;0;0;0;0;0
121.4983;0.740717;0.1429;0;0;0;0;0
122.998;0.75197;0.1425;0;0;0;0;0
124.4982;0.760537;0.1369;0;0;0;0;0
125.998;7.70E-01;0.141;0;0;0;0;0
127.4979;0.782421;0.1397;0;0;0;0;0
128.9981;0.790809;0.14;0;0;0;0;0
130.4978;0.800832;0.1419;0;0;0;0;0
131.9979;8.10E-01;0.1381;0;0;0;0;0
133.4978;8.22E-01;0.1416;0;0;0;0;0
134.9977;0.83102;0.1381;0;0;0;0;0
136.498;0.840296;0.1372;0;0;0;0;0
137.9977;8.50E-01;0.14;0;0;0;0;0
139.498;0.8609;0.1391;0;0;0;0;0
140.9977;8.71E-01;0.1369;0;0;0;0;0
142.4978;8.80E-01;0.1372;0;0;0;0;0
143.9977;0.890977;0.1362;0;0;0;0;0
145.4977;0.901292;0.1391;0;0;0;0;0
146.9979;9.10E-01;0.1346;0;0;0;0;0
148.4975;9.21E-01;0.1394;0;0;0;0;0
149.9975;0.930794;0.1391;0;0;0;0;0
151.4975;0.9411017;0.1359;0;0;0;0;0
152.9975;0.950933;0.1372;0;0;0;0;0
154.4975;0.961765;0.1324;0;0;0;0;0
155.9975;0.970559;0.1359;0;0;0;0;0
157.4975;0.98027;0.1346;0;0;0;0;0
158.9974;0.990783;0.1328;0;0;0;0;0
160.4975;1.00073;0.1346;0;0;0;0;0
161.9974;1.01092;0.1372;0;0;0;0;0
163.4972;1.02E+00;0.1346;0;0;0;0;0
164.9972;1.0307;0.1312;0;0;0;0;0
166.4975;1.04154;0.129;0;0;0;0;0
167.9973;1.05E+00;0.1299;0;0;0;0;0
169.4972;1.06E+00;0.134;0;0;0;0;0
170.9972;1.0709;0.1312;0;0;0;0;0
172.4971;1.08111;0.1318;0;0;0;0;0
173.9974;1.09E+00;0.1337;0;0;0;0;0
175.497;1.10E+00;0.1315;0;0;0;0;0
176.9972;1.11E+00;0.1261;0;0;0;0;0
178.497;1.12063;0.1293;0;0;0;0;0
179.9971;1.13105;0.1299;0;0;0;0;0
181.497;1.14001;0.1271;0;0;0;0;0
182.9969;1.15073;0.1286;0;0;0;0;0
184.4969;1.16097;0.1302;0;0;0;0;0
185.9971;1.17028;0.1258;0;0;0;0;0
187.497;1.18017;0.1267;0;0;0;0;0
188.9971;1.19026;0.1299;0;0;0;0;0
190.4968;1.20022;0.1217;0;0;0;0;0
191.9969;1.2103;0.1264;0;0;0;0;0
193.4967;1.22083;0.1207;0;0;0;0;0
194.9967;1.22985;0.1277;0;0;0;0;0
196.497;1.24151;0.1239;0;0;0;0;0
197.9968;1.25003;0.1249;0;0;0;0;0
199.4967;1.26061;0.1236;0;0;0;0;0
200.9969;1.26988;0.1223;0;0;0;0;0
202.4966;1.28038;0.1211;0;0;0;0;0
203.9969;1.29095;0.1242;0;0;0;0;0
205.4967;1.30092;0.1242;0;0;0;0;0
206.9968;1.31068;0.1223;0;0;0;0;0
208.4965;1.32E+00;0.1242;0;0;0;0;0
209.9966;1.33142;0.1207;0;0;0;0;0
211.4968;1.33994;0.1182;0;0;0;0;0
212.9964;1.35018;0.1226;0;0;0;0;0
214.4964;1.36E+00;0.1201;0;0;0;0;0
215.9964;1.37032;0.1147;0;0;0;0;0
217.4965;1.38103;0.116;0;0;0;0;0
218.9966;1.39043;0.1192;0;0;0;0;0
220.4964;1.40112;0.1211;0;0;0;0;0
221.9963;1.41074;0.1163;0;0;0;0;0
223.4962;1.41989;0.1157;0;0;0;0;0
224.9962;1.43029;0.1151;0;0;0;0;0
226.4963;1.44039;0.1078;0;0;0;0;0
227.9963;1.45025;0.109;0;0;0;0;0
229.4962;1.46053;0.109;0;0;0;0;0
230.9962;1.47E+00;0.1138;0;0;0;0;0
232.4961;1.48065;0.1109;0;0;0;0;0
233.9961;1.48986;0.1116;0;0;0;0;0
235.4962;1.49993;0.1084;0;0;0;0;0
236.9961;1.50928;0.1062;0;0;0;0;0
238.496;1.51905;0.1075;0;0;0;0;0
239.9959;1.53E+00;0.1078;0;0;0;0;0
241.4962;1.53965;0.1072;0;0;0;0;0
242.9959;1.5506;0.1046;0;0;0;0;0
244.4959;1.55897;0.1065;0;0;0;0;0
245.9959;1.57045;0.1011;0;0;0;0;0
247.4958;1.58078;0.0977;0;0;0;0;0
248.9961;1.58853;0.0999;0;0;0;0;0
250.4957;1.59975;0.1011;0;0;0;0;0
251.9961;1.60997;0.0961;0;0;0;0;0
253.496;1.61995;0.0961;0;0;0;0;0
254.9959;1.63009;0.0967;0;0;0;0;0
256.4957;1.63971;0.0964;0;0;0;0;0
257.9956;1.65014;0.091;0;0;0;0;0
259.4957;1.65994;0.0936;0;0;0;0;0
260.9958;1.66991;0.0901;0;0;0;0;0
262.4957;1.68061;0.0882;0;0;0;0;0
263.9956;1.68978;0.0901;0;0;0;0;0
265.4955;1.69994;0.0863;0;0;0;0;0
266.9956;1.71014;0.086;0;0;0;0;0
268.4954;1.72064;0.0857;0;0;0;0;0
269.9954;1.7298;0.0809;0;0;0;0;0
271.4955;1.74062;0.086;0;0;0;0;0
272.9954;1.75083;0.0797;0;0;0;0;0
274.4956;1.76128;0.0803;0;0;0;0;0
275.9954;1.77121;0.0765;0;0;0;0;0
277.4953;1.78023;0.079;0;0;0;0;0
278.9953;1.79018;0.0752;0;0;0;0;0
280.4954;1.79962;0.0778;0;0;0;0;0
281.9953;1.8106;0.073;0;0;0;0;0
283.4952;1.82145;0.0733;0;0;0;0;0
284.9952;1.83084;0.0718;0;0;0;0;0
286.4952;1.84125;0.0724;0;0;0;0;0
287.9951;1.8517;0.0676;0;0;0;0;0
289.4954;1.86124;0.0686;0;0;0;0;0
290.9952;1.87105;0.0654;0;0;0;0;0
292.495;1.88151;0.0692;0;0;0;0;0
293.9953;1.89286;0.0613;0;0;0;0;0
295.4951;1.90096;0.0654;0;0;0;0;0
296.9951;1.91091;0.0607;0;0;0;0;0
298.4952;1.92106;0.0597;0;0;0;0;0
299.9951;1.93095;0.0604;0;0;0;0;0
301.4952;1.9407;0.0591;0;0;0;0;0
302.9949;1.95119;0.0582;0;0;0;0;0
304.4949;1.96324;0.056;0;0;0;0;0
305.9951;1.97123;0.0512;0;0;0;0;0
307.495;1.98106;0.0534;0;0;0;0;0
308.9948;1.99257;0.0553;0;0;0;0;0
310.495;2.00095;0.0493;0;0;0;0;0
311.9948;2.01134;0.0493;0;0;0;0;0
313.4949;2.02157;0.0506;0;0;0;0;0
314.9947;2.03175;0.0481;0;0;0;0;0
316.4947;2.04249;0.0481;0;0;0;0;0
317.9946;2.05243;0.0455;0;0;0;0;0
319.4946;2.06211;0.0367;0;0;0;0;0
320.9948;2.07323;0.0433;0;0;0;0;0
322.4947;2.08203;0.037;0;0;0;0;0
323.9948;2.09382;0.0364;0;0;0;0;0
325.4945;2.10269;0.0392;0;0;0;0;0
326.9946;2.11315;0.0354;0;0;0;0;0
328.4947;2.12313;0.037;0;0;0;0;0
329.9944;2.13243;0.0332;0;0;0;0;0
331.4945;2.14379;0.031;0;0;0;0;0
332.9944;2.15361;0.0326;0;0;0;0;0
334.4944;2.16335;0.0266;0;0;0;0;0
335.9944;2.17442;0.0272;0;0;0;0;0
337.4943;2.18332;0.0234;0;0;0;0;0
338.9943;2.19332;0.0228;0;0;0;0;0
340.4942;2.20346;0.0215;0;0;0;0;0
341.9943;2.21429;0.0193;0;0;0;0;0
343.4942;2.22369;0.019;0;0;0;0;0
344.9942;2.23366;0.013;0;0;0;0;0
346.4944;2.24471;0.0123;0;0;0;0;0
347.9942;2.25403;0.0127;0;0;0;0;0
349.4941;2.2639;0.0067;0;0;0;0;0
350.9943;2.27468;0.0086;0;0;0;0;0
352.494;2.28433;0.0035;0;0;0;0;0
353.9943;2.29415;0.0025;0;0;0;0;0
354.994;2.30121;0.001;0;0;0;0;0