File: polyN_optimization/results_exp/AA7020-T6/NT6_90_2.csv
Time[s],Displacement[mm],Force[kN],AxStrain_1,AxStrain_2,Thickness[mm],OuterWidth[mm],InnerWidth[mm]
0.6,0,-0.011456,0,0,1.0263,19.975,10.01
2.6,0.000676,0.0077095,0.00024397,0,0,0,0
4.6,0.000946,0.088137,0.00019498,0,0,0,0
6.6,0.001815,0.14914,-7e-06,0,0,0,0
8.6,0.001954,0.20514,0.00031695,0,0,0,0
10.6,0.003586,0.26014,0.00025297,0,0,0,0
12.6,0.005222,0.314,0.00012899,0,0,0,0
14.6,0.00466,0.36814,-1.3e-05,0,0,0,0
16.6,0.006233,0.41986,0.00021698,0,0,0,0
18.6,0.007444,0.47128,0.00030095,0,0,0,0
20.6,0.009326,0.52286,0.00029496,0,0,0,0
22.6,0.010645,0.57458,0.00020298,0,0,0,0
24.6,0.012104,0.62857,0.00014899,0,0,0,0
26.6,0.011197,0.68157,0.00023397,0,0,0,0
28.6,0.012943,0.73272,0.00031095,0,0,0,0
30.6,0.01452,0.78743,0.00065978,0,0,0,0
32.6,0.017298,0.84086,0.00064979,0,0,0,0
34.6,0.018117,0.89386,0.00051087,0,0,0,0
36.6,0.019531,0.94886,0.00076771,0,0,0,0
38.6,0.019423,1.0027,0.00068976,0,0,0,0
40.6,0.020523,1.0559,0.0010355,0,0,0,0
42.6,0.023413,1.1099,0.0010854,0,0,0,0
44.6,0.02522,1.1631,0.0011943,0,0,0,0
46.6,0.025944,1.2147,0.0007777,0,0,0,0
48.6,0.026956,1.2687,0.0011463,0,0,0,0
50.6,0.028519,1.3216,0.0010315,0,0,0,0
52.6,0.030292,1.3729,0.0013051,0,0,0,0
54.6,0.031487,1.4266,0.0011803,0,0,0,0
56.6,0.033189,1.4787,0.0011563,0,0,0,0
58.6,0.034265,1.5311,0.0011873,0,0,0,0
60.6,0.036059,1.5841,0.0012243,0,0,0,0
62.6,0.037047,1.6371,0.0015887,0,0,0,0
64.6,0.038576,1.6877,0.001424,0,0,0,0
66.6,0.039585,1.7407,0.0012582,0,0,0,0
68.6,0.042146,1.7926,0.0012882,0,0,0,0
70.6,0.043974,1.8439,0.001434,0,0,0,0
72.6,0.044231,1.8969,0.0017644,0,0,0,0
74.6,0.045463,1.9484,0.0016397,0,0,0,0
76.6,0.047253,1.9999,0.0014879,0,0,0,0
78.6,0.049628,2.0521,0.0013701,0,0,0,0
80.6,0.05105,2.1041,0.0015418,0,0,0,0
82.6,0.051808,2.1544,0.0018323,0,0,0,0
84.6,0.052708,2.2057,0.0020489,0,0,0,0
86.6,0.05444,2.2549,0.0017275,0,0,0,0
88.6,0.056447,2.3036,0.0017385,0,0,0,0
90.6,0.058413,2.354,0.0017215,0,0,0,0
92.6,0.059696,2.4037,0.0022205,0,0,0,0
94.6,0.060701,2.4539,0.0022006,0,0,0,0
96.6,0.062251,2.5039,0.0022006,0,0,0,0
98.6,0.063797,2.5546,0.0018463,0,0,0,0
100.6,0.066081,2.6027,0.0020788,0,0,0,0
102.6,0.068081,2.6527,0.0023732,0,0,0,0
104.6,0.07025,2.7019,0.0026156,0,0,0,0
106.6,0.071313,2.7506,0.002433,0,0,0,0
108.6,0.073573,2.7999,0.0023662,0,0,0,0
110.6,0.075231,2.8474,0.0027373,0,0,0,0
112.6,0.077898,2.8951,0.0028729,0,0,0,0
114.6,0.081143,2.9429,0.0032437,0,0,0,0
116.6,0.083417,2.9899,0.0035806,0,0,0,0
118.6,0.084666,3.035,0.0033444,0,0,0,0
120.6,0.087508,3.0797,0.0034122,0,0,0,0
122.6,0.090723,3.1226,0.0039183,0,0,0,0
124.6,0.094716,3.1649,0.0048273,0,0,0,0
126.6,0.098641,3.205,0.0056689,0,0,0,0
128.6,0.10253,3.245,0.0055347,0,0,0,0
130.6,0.10727,3.2829,0.0055347,0,0,0,0
132.6,0.1115,3.3203,0.0060387,0,0,0,0
134.6,0.11593,3.3566,0.0074512,0,0,0,0
136.6,0.12064,3.3911,0.0083907,0,0,0,0
138.6,0.12683,3.4249,0.0086257,0,0,0,0
140.6,0.13258,3.4576,0.0084918,0,0,0,0
142.6,0.13844,3.4899,0.0091629,0,0,0,0
144.6,0.14504,3.5204,0.010771,0,0,0,0
146.6,0.15204,3.551,0.012276,0,0,0,0
148.6,0.15843,3.5793,0.013078,0,0,0,0
150.6,0.16398,3.6076,0.012677,0,0,0,0
152.6,0.17092,3.6356,0.013312,0,0,0,0
154.6,0.17891,3.6624,0.01498,0,0,0,0
156.6,0.185,3.6879,0.016545,0,0,0,0
158.6,0.19343,3.7136,0.017178,0,0,0,0
160.6,0.20077,3.738,0.017178,0,0,0,0
162.6,0.20841,3.7619,0.01761,0,0,0,0
164.6,0.21627,3.7856,0.01874,0,0,0,0
166.6,0.22459,3.8083,0.020632,0,0,0,0
168.6,0.23244,3.8316,0.021492,0,0,0,0
170.6,0.24066,3.8533,0.021459,0,0,0,0
172.6,0.24939,3.8749,0.022321,0,0,0,0
174.6,0.25789,3.8966,0.02338,0,0,0,0
176.6,0.26554,3.9179,0.024536,0,0,0,0
178.6,0.27423,3.9386,0.025525,0,0,0,0
180.6,0.28276,3.9589,0.026383,0,0,0,0
182.6,0.29085,3.9793,0.02714,0,0,0,0
184.6,0.30022,3.9983,0.028128,0,0,0,0
186.6,0.30902,4.0176,0.028852,0,0,0,0
188.6,0.31755,4.037,0.029804,0,0,0,0
190.6,0.32763,4.0556,0.031052,0,0,0,0
192.6,0.33677,4.0739,0.031774,0,0,0,0
194.6,0.34479,4.0923,0.032527,0,0,0,0
196.6,0.35568,4.1106,0.033214,0,0,0,0
198.6,0.36475,4.128,0.034229,0,0,0,0
200.6,0.37308,4.1457,0.035406,0,0,0,0
202.6,0.38407,4.1623,0.036581,0,0,0,0
204.6,0.39348,4.1789,0.037233,0,0,0,0
206.6,0.40157,4.1956,0.038081,0,0,0,0
208.6,0.41145,4.2121,0.038797,0,0,0,0
210.6,0.42116,4.2286,0.039871,0,0,0,0
212.6,0.43047,4.2449,0.040911,0,0,0,0
214.6,0.44048,4.2603,0.041723,0,0,0,0
216.6,0.4504,4.2756,0.042793,0,0,0,0
218.6,0.4596,4.2916,0.043894,0,0,0,0
220.6,0.47016,4.307,0.045093,0,0,0,0
222.6,0.47997,4.3216,0.045481,0,0,0,0
224.6,0.48908,4.3363,0.046321,0,0,0,0
226.6,0.50018,4.3503,0.047548,0,0,0,0
228.6,0.50996,4.3649,0.048612,0,0,0,0
230.6,0.5194,4.3789,0.049708,0,0,0,0
232.6,0.53026,4.3933,0.050544,0,0,0,0
234.6,0.54048,4.4073,0.051123,0,0,0,0
236.6,0.5508,4.4197,0.052248,0,0,0,0
238.6,0.56102,4.4331,0.0535,0,0,0,0
240.6,0.57147,4.4457,0.054622,0,0,0,0
242.6,0.58125,4.4593,0.055455,0,0,0,0
244.6,0.59279,4.4724,0.056479,0,0,0,0
246.6,0.6024,4.4851,0.057247,0,0,0,0
248.6,0.61283,4.4974,0.058396,0,0,0,0
250.6,0.62332,4.5094,0.059512,0,0,0,0
252.6,0.6331,4.5217,0.060532,0,0,0,0
254.6,0.6443,4.5347,0.061678,0,0,0,0
256.6,0.65543,4.5467,0.062537,0,0,0,0
258.6,0.66524,4.5587,0.063522,0,0,0,0
260.6,0.67597,4.5697,0.06457,0,0,0,0
262.6,0.6871,4.5814,0.065616,0,0,0,0
264.6,0.69729,4.593,0.066851,0,0,0,0
266.6,0.70846,4.6044,0.0678,0,0,0,0
268.6,0.71884,4.6157,0.068749,0,0,0,0
270.6,0.72967,4.6264,0.06998,0,0,0,0
272.6,0.74121,4.637,0.070863,0,0,0,0
274.6,0.75197,4.647,0.072187,0,0,0,0
276.6,0.76294,4.6577,0.073446,0,0,0,0
278.6,0.77441,4.6683,0.074293,0,0,0,0
280.6,0.78483,4.679,0.075362,0,0,0,0
282.6,0.79603,4.6883,0.076554,0,0,0,0
284.6,0.8075,4.698,0.077493,0,0,0,0
286.6,0.81823,4.7079,0.078869,0,0,0,0
288.6,0.82997,4.7179,0.08012,0,0,0,0
290.6,0.84137,4.7283,0.081212,0,0,0,0
292.6,0.85197,4.7373,0.082242,0,0,0,0
294.6,0.86388,4.7466,0.083332,0,0,0,0
296.6,0.87508,4.755,0.084545,0,0,0,0
298.6,0.88591,4.7637,0.085851,0,0,0,0
300.6,0.89806,4.773,0.087186,0,0,0,0
302.6,0.90895,4.7817,0.088301,0,0,0,0
304.6,0.92029,4.7907,0.08954,0,0,0,0
306.6,0.93247,4.798,0.091025,0,0,0,0
308.6,0.9431,4.806,0.092353,0,0,0,0
310.6,0.95453,4.8144,0.093556,0,0,0,0
312.6,0.96553,4.8226,0.094849,0,0,0,0
314.6,0.97687,4.831,0.09611,0,0,0,0
316.6,0.98905,4.839,0.098046,0,0,0,0
318.6,1.0001,4.8463,0.099548,0,0,0,0
320.6,1.0112,4.8533,0.10086,0,0,0,0
322.6,1.0236,4.8606,0.10209,0,0,0,0
324.6,1.0347,4.868,0.10331,0,0,0,0
326.6,1.0461,4.8754,0.10529,0,0,0,0
328.6,1.0585,4.882,0.10693,0,0,0,0
330.6,1.0693,4.8886,0.10836,0,0,0,0
332.6,1.0817,4.896,0.10982,0,0,0,0
334.6,1.0935,4.9027,0.11106,0,0,0,0
336.6,1.1049,4.9084,0.11273,0,0,0,0
338.6,1.118,4.915,0.11469,0,0,0,0
340.6,1.1291,4.9213,0.11662,0,0,0,0
342.6,1.1411,4.9267,0.11809,0,0,0,0
344.6,1.1533,4.9327,0.11926,0,0,0,0
346.6,1.165,4.9387,0.12149,0,0,0,0
348.6,1.1776,4.9443,0.12319,0,0,0,0
350.6,1.1896,4.95,0.12502,0,0,0,0
352.6,1.201,4.955,0.12696,0,0,0,0
354.6,1.2133,4.9597,0.12874,0,0,0,0
356.6,1.2248,4.9657,0.13055,0,0,0,0
358.6,1.2372,4.97,0.13251,0,0,0,0
360.6,1.2497,4.9743,0.13456,0,0,0,0
362.6,1.2614,4.979,0.13663,0,0,0,0
364.6,1.2741,4.9837,0.13884,0,0,0,0
366.6,1.2864,4.9887,0.14063,0,0,0,0
368.6,1.2982,4.992,0.14272,0,0,0,0
370.6,1.3109,4.9957,0.14495,0,0,0,0
372.6,1.323,4.9997,0.14734,0,0,0,0
374.6,1.3356,5.003,0.14974,0,0,0,0
376.6,1.3488,5.006,0.15238,0,0,0,0
378.6,1.3608,5.0093,0.15494,0,0,0,0
380.6,1.374,5.012,0.15766,0,0,0,0
382.6,1.3865,5.015,0.15991,0,0,0,0
384.6,1.3988,5.0173,0.16313,0,0,0,0
386.6,1.4119,5.0193,0.16614,0,0,0,0
388.6,1.4241,5.0217,0.16892,0,0,0,0
390.6,1.437,5.0237,0.17158,0,0,0,0
392.6,1.4502,5.0243,0.17499,0,0,0,0
394.6,1.4623,5.026,0.17831,0,0,0,0
396.6,1.476,5.027,0.18173,0,0,0,0
398.6,1.4882,5.027,0.18553,0,0,0,0
400.6,1.5005,5.027,0.18896,0,0,0,0
402.6,1.5152,5.0263,0.19287,0,0,0,0
404.6,1.5279,5.0257,0.19688,0,0,0,0
406.6,1.5412,5.0243,0.2011,0,0,0,0
408.6,1.5544,5.0223,0.20518,0,0,0,0
410.6,1.5674,5.019,0.21036,0,0,0,0
412.6,1.5815,5.0153,0.21493,0,0,0,0
414.6,1.5945,5.011,0.21999,0,0,0,0
416.6,1.6089,5.005,0.22663,0,0,0,0
418.6,1.6227,4.9976,0.23308,0,0,0,0
420.6,1.6365,4.988,0.2396,0,0,0,0
422.6,1.6516,4.977,0.24727,0,0,0,0
424.6,1.6657,4.962,0.25443,0,0,0,0
426.6,1.6812,4.9429,0.26171,0,0,0,0
428.6,1.6966,4.9186,0.27043,0,0,0,0
429.1,1.7007,4.9101,0.27255,0,0,0,0