File: LAB_DATA/DP780_results/DATA/CH_00_3.csv
Time[s],Displacement[mm],Force[kN],AxStrain_1,AxStrain_2,Thickness[mm],OuterWidth[mm],Diameter[mm]
0,0,-0.031695,0,0,1.5001,19.955,5
3.5,0.000645,0.18577,4.00E-05,4.00E-05,0,0,0
7,0.001015,0.3425,0.00035294,0.00035294,0,0,0
10.5,0.001349,0.4962,-9.20E-05,-9.20E-05,0,0,0
14,0.000947,0.64195,5.10E-05,5.10E-05,0,0,0
17.5,0.001018,0.7833,0.00028396,0.00028396,0,0,0
21,0.001917,0.92477,0.00025397,0.00025397,0,0,0
24.5,0.002259,1.0568,0.00014199,0.00014199,0,0,0
28,0.002222,1.1884,0.00050687,0.00050687,0,0,0
31.5,0.002825,1.3086,0.00033794,0.00033794,0,0,0
35,0.003583,1.4308,0.0004429,0.0004429,0,0,0
38.5,0.003421,1.5473,0.00042591,0.00042591,0,0,0
42,0.004488,1.664,0.00039892,0.00039892,0,0,0
45.5,0.004564,1.7756,0.00030495,0.00030495,0,0,0
49,0.00464,1.8891,0.00040292,0.00040292,0,0,0
52.5,0.005511,1.9984,0.00053786,0.00053786,0,0,0
56,0.00592,2.1056,0.00059482,0.00059482,0,0,0
59.5,0.005717,2.2144,0.00052086,0.00052086,0,0,0
63,0.007312,2.3192,0.00054185,0.00054185,0,0,0
66.5,0.007425,2.4257,0.00075072,0.00075072,0,0,0
70,0.006766,2.5284,0.00075072,0.00075072,0,0,0
73.5,0.008444,2.6331,0.00070375,0.00070375,0,0,0
77,0.008557,2.7369,0.00086263,0.00086263,0,0,0
80.5,0.007878,2.8386,0.00094156,0.00094156,0,0,0
84,0.009483,2.9418,0.0008936,0.0008936,0,0,0
87.5,0.010283,3.0401,0.0006298,0.0006298,0,0,0
91,0.009372,3.1423,0.0011993,0.0011993,0,0,0
94.5,0.010649,3.2395,0.0010305,0.0010305,0,0,0
98,0.011826,3.3419,0.0010944,0.0010944,0,0,0
101.5,0.010952,3.441,0.00098052,0.00098052,0,0,0
105,0.012275,3.5403,0.0011354,0.0011354,0,0,0
108.5,0.013171,3.6441,0.0012532,0.0012532,0,0,0
112,0.012339,3.7417,0.0013551,0.0013551,0,0,0
115.5,0.013226,3.8399,0.001389,0.001389,0,0,0
119,0.01489,3.9375,0.0013551,0.0013551,0,0,0
122.5,0.014187,4.039,0.0013211,0.0013211,0,0,0
126,0.014398,4.1356,0.0013221,0.0013221,0,0,0
129.5,0.016334,4.2286,0.0011194,0.0011194,0,0,0
133,0.015735,4.3291,0.001389,0.001389,0,0,0
136.5,0.015408,4.4248,0.0014569,0.0014569,0,0,0
140,0.017614,4.5198,0.0012892,0.0012892,0,0,0
143.5,0.017286,4.6192,0.0016606,0.0016606,0,0,0
147,0.016755,4.7162,0.0016956,0.0016956,0,0,0
150.5,0.018625,4.8095,0.0016626,0.0016626,0,0,0
154,0.019141,4.9074,0.0017295,0.0017295,0,0,0
157.5,0.018204,5.0052,0.0021028,0.0021028,0,0,0
161,0.019769,5.0968,0.0017664,0.0017664,0,0,0
164.5,0.020996,5.1907,0.0019691,0.0019691,0,0,0
168,0.020262,5.2895,0.0021028,0.0021028,0,0,0
171.5,0.021119,5.3878,0.0022046,0.0022046,0,0,0
175,0.022384,5.4831,0.0019361,0.0019361,0,0,0
178.5,0.021923,5.579,0.0022365,0.0022365,0,0,0
182,0.021935,5.6762,0.0023393,0.0023393,0,0,0
185.5,0.023905,5.7755,0.0022385,0.0022385,0,0,0
189,0.024019,5.87,0.0023732,0.0023732,0,0,0
192.5,0.023928,5.9695,0.0025079,0.0025079,0,0,0
196,0.025361,6.0585,0.0024759,0.0024759,0,0,0
199.5,0.026387,6.1512,0.0025428,0.0025428,0,0,0
203,0.025892,6.2502,0.0028459,0.0028459,0,0,0
206.5,0.02685,6.3474,0.0027462,0.0027462,0,0,0
210,0.027943,6.4439,0.0026126,0.0026126,0,0,0
213.5,0.028331,6.5381,0.0025787,0.0025787,0,0,0
217,0.028548,6.6322,0.002815,0.002815,0,0,0
220.5,0.029711,6.7318,0.0029506,0.0029506,0,0,0
224,0.030198,6.8266,0.0029177,0.0029177,0,0,0
227.5,0.030078,6.925,0.0032557,0.0032557,0,0,0
231,0.031614,7.0212,0.0033255,0.0033255,0,0,0
234.5,0.032303,7.1158,0.0030543,0.0030543,0,0,0
238,0.032688,7.2147,0.0034241,0.0034241,0,0,0
241.5,0.033446,7.3167,0.0036952,0.0036952,0,0,0
245,0.03427,7.4134,0.0034949,0.0034949,0,0,0
248.5,0.035095,7.5137,0.0038655,0.0038655,0,0,0
252,0.03609,7.6114,0.0044053,0.0044053,0,0,0
255.5,0.036711,7.7136,0.0039701,0.0039701,0,0,0
259,0.037975,7.8139,0.0040368,0.0040368,0,0,0
262.5,0.039305,7.9141,0.0046094,0.0046094,0,0,0
266,0.039422,8.0132,0.0046123,0.0046123,0,0,0
269.5,0.040314,8.1096,0.0043406,0.0043406,0,0,0
273,0.042223,8.2144,0.0048781,0.0048781,0,0,0
276.5,0.041964,8.3118,0.0049119,0.0049119,0,0,0
280,0.042859,8.4117,0.0048821,0.0048821,0,0,0
283.5,0.045444,8.5152,0.0053825,0.0053825,0,0,0
287,0.045658,8.6188,0.0057862,0.0057862,0,0,0
290.5,0.046078,8.7168,0.0057206,0.0057206,0,0,0
294,0.048257,8.8206,0.005821,0.005821,0,0,0
297.5,0.04945,8.926,0.0066935,0.0066935,0,0,0
301,0.049565,9.027,0.0060904,0.0060904,0,0,0
304.5,0.051977,9.1343,0.0064243,0.0064243,0,0,0
308,0.05334,9.2358,0.007196,0.007196,0,0,0
311.5,0.053152,9.3375,0.0069975,0.0069975,0,0,0
315,0.055967,9.4411,0.0069289,0.0069289,0,0,0
318.5,0.05777,9.5429,0.0079027,0.0079027,0,0,0
322,0.058186,9.648,0.0078035,0.0078035,0,0,0
325.5,0.060429,9.7486,0.0076695,0.0076695,0,0,0
329,0.062399,9.8534,0.0085741,0.0085741,0,0,0
332.5,0.063864,9.9565,0.0091124,0.0091124,0,0,0
336,0.0658,10.056,0.0087456,0.0087456,0,0,0
339.5,0.067804,10.157,0.0098483,0.0098483,0,0,0
343,0.069707,10.262,0.010387,0.010387,0,0,0
346.5,0.072012,10.363,0.0098196,0.0098196,0,0,0
350,0.073949,10.462,0.010588,0.010588,0,0,0
353.5,0.076762,10.566,0.011558,0.011558,0,0,0
357,0.079,10.667,0.011259,0.011259,0,0,0
360.5,0.080631,10.764,0.012158,0.012158,0,0,0
364,0.084054,10.867,0.013092,0.013092,0,0,0
367.5,0.087205,10.967,0.012826,0.012826,0,0,0
371,0.088462,11.066,0.013587,0.013587,0,0,0
374.5,0.092358,11.168,0.014622,0.014622,0,0,0
378,0.09507,11.267,0.014188,0.014188,0,0,0
381.5,0.097816,11.366,0.014918,0.014918,0,0,0
385,0.10103,11.462,0.016214,0.016214,0,0,0
388.5,0.10421,11.559,0.016314,0.016314,0,0,0
392,0.10848,11.656,0.016646,0.016646,0,0,0
395.5,0.11132,11.749,0.017974,0.017974,0,0,0
399,0.11427,11.845,0.018175,0.018175,0,0,0
402.5,0.11954,11.943,0.018672,0.018672,0,0,0
406,0.12262,12.034,0.019931,0.019931,0,0,0
409.5,0.12597,12.127,0.020529,0.020529,0,0,0
413,0.13098,12.22,0.020992,0.020992,0,0,0
416.5,0.13503,12.309,0.022086,0.022086,0,0,0
420,0.13954,12.401,0.022714,0.022714,0,0,0
423.5,0.14285,12.491,0.023637,0.023637,0,0,0
427,0.14827,12.583,0.024433,0.024433,0,0,0
430.5,0.15341,12.67,0.025753,0.025753,0,0,0
434,0.15686,12.761,0.026311,0.026311,0,0,0
437.5,0.16265,12.849,0.027135,0.027135,0,0,0
441,0.16755,12.935,0.028086,0.028086,0,0,0
444.5,0.17303,13.022,0.029368,0.029368,0,0,0
448,0.17763,13.109,0.030287,0.030287,0,0,0
451.5,0.18297,13.192,0.031301,0.031301,0,0,0
455,0.18987,13.281,0.032577,0.032577,0,0,0
458.5,0.19447,13.364,0.033102,0.033102,0,0,0
462,0.20052,13.444,0.034603,0.034603,0,0,0
465.5,0.20619,13.528,0.035449,0.035449,0,0,0
469,0.21241,13.607,0.036527,0.036527,0,0,0
472.5,0.21856,13.687,0.037731,0.037731,0,0,0
476,0.22363,13.768,0.039097,0.039097,0,0,0
479.5,0.23133,13.845,0.040331,0.040331,0,0,0
483,0.23745,13.923,0.041563,0.041563,0,0,0
486.5,0.24488,14.003,0.042727,0.042727,0,0,0
490,0.25012,14.078,0.044379,0.044379,0,0,0
493.5,0.25732,14.154,0.045317,0.045317,0,0,0
497,0.26502,14.229,0.046672,0.046672,0,0,0
500.5,0.27182,14.301,0.048476,0.048476,0,0,0
504,0.27861,14.375,0.049732,0.049732,0,0,0
507.5,0.28509,14.447,0.05121,0.05121,0,0,0
511,0.29385,14.515,0.052684,0.052684,0,0,0
514.5,0.3004,14.587,0.053905,0.053905,0,0,0
518,0.30841,14.654,0.055377,0.055377,0,0,0
521.5,0.315,14.724,0.056943,0.056943,0,0,0
525,0.32433,14.79,0.058539,0.058539,0,0,0
528.5,0.3317,14.854,0.06029,0.06029,0,0,0
532,0.33923,14.92,0.061848,0.061848,0,0,0
535.5,0.34727,14.987,0.063659,0.063659,0,0,0
539,0.35539,15.052,0.065402,0.065402,0,0,0
542.5,0.36451,15.115,0.066918,0.066918,0,0,0
546,0.37224,15.177,0.068656,0.068656,0,0,0
549.5,0.38097,15.241,0.07058,0.07058,0,0,0
553,0.38854,15.301,0.072784,0.072784,0,0,0
556.5,0.39837,15.361,0.074134,0.074134,0,0,0
560,0.40715,15.42,0.07633,0.07633,0,0,0
563.5,0.41665,15.484,0.078645,0.078645,0,0,0
567,0.42462,15.541,0.080205,0.080205,0,0,0
570.5,0.43433,15.597,0.082385,0.082385,0,0,0
574,0.44321,15.652,0.084439,0.084439,0,0,0
577.5,0.45355,15.71,0.086269,0.086269,0,0,0
581,0.4622,15.767,0.088374,0.088374,0,0,0
584.5,0.47166,15.818,0.090136,0.090136,0,0,0
588,0.48096,15.875,0.09285,0.09285,0,0,0
591.5,0.49126,15.926,0.094851,0.094851,0,0,0
595,0.5016,15.977,0.096785,0.096785,0,0,0
598.5,0.51177,16.033,0.099727,0.099727,0,0,0
602,0.52107,16.084,0.10177,0.10177,0,0,0
605.5,0.5311,16.132,0.10397,0.10397,0,0,0
609,0.54171,16.183,0.10634,0.10634,0,0,0
612.5,0.55236,16.236,0.10892,0.10892,0,0,0
616,0.56296,16.281,0.11092,0.11092,0,0,0
619.5,0.57307,16.327,0.11306,0.11306,0,0,0
623,0.58364,16.377,0.11629,0.11629,0,0,0
626.5,0.5947,16.425,0.11839,0.11839,0,0,0
630,0.60635,16.47,0.12058,0.12058,0,0,0
633.5,0.61777,16.517,0.12291,0.12291,0,0,0
637,0.62875,16.563,0.12608,0.12608,0,0,0
640.5,0.6397,16.606,0.12878,0.12878,0,0,0
644,0.65106,16.651,0.13143,0.13143,0,0,0
647.5,0.66285,16.69,0.13444,0.13444,0,0,0
651,0.67461,16.73,0.13742,0.13742,0,0,0
654.5,0.68664,16.774,0.1411,0.1411,0,0,0
658,0.69769,16.815,0.1438,0.1438,0,0,0
661.5,0.70975,16.855,0.14739,0.14739,0,0,0
665,0.72141,16.897,0.15071,0.15071,0,0,0
668.5,0.73459,16.934,0.15347,0.15347,0,0,0
672,0.74645,16.976,0.15677,0.15677,0,0,0
675.5,0.7601,17.012,0.15957,0.15957,0,0,0
679,0.77143,17.05,0.16371,0.16371,0,0,0
682.5,0.7847,17.085,0.16675,0.16675,0,0,0
686,0.79663,17.123,0.16983,0.16983,0,0,0
689.5,0.81059,17.159,0.17311,0.17311,0,0,0
693,0.8236,17.192,0.1773,0.1773,0,0,0
696.5,0.83756,17.228,0.18134,0.18134,0,0,0
700,0.8505,17.26,0.18447,0.18447,0,0,0
703.5,0.86419,17.294,0.18873,0.18873,0,0,0
707,0.87774,17.324,0.19301,0.19301,0,0,0
710.5,0.89122,17.358,0.19732,0.19732,0,0,0
714,0.90629,17.389,0.20227,0.20227,0,0,0
717.5,0.92012,17.42,0.20684,0.20684,0,0,0
721,0.9359,17.449,0.2118,0.2118,0,0,0
724.5,0.94945,17.477,0.21628,0.21628,0,0,0
728,0.96405,17.502,0.22073,0.22073,0,0,0
731.5,0.97875,17.533,0.2256,0.2256,0,0,0
735,0.99335,17.557,0.23052,0.23052,0,0,0
738.5,1.0093,17.584,0.23628,0.23628,0,0,0
742,1.024,17.611,0.24184,0.24184,0,0,0
745.5,1.0409,17.634,0.24779,0.24779,0,0,0
749,1.0564,17.657,0.25363,0.25363,0,0,0
752.5,1.0735,17.677,0.25985,0.25985,0,0,0
756,1.0905,17.695,0.26617,0.26617,0,0,0
759.5,1.1065,17.717,0.27285,0.27285,0,0,0
763,1.1243,17.734,0.27919,0.27919,0,0,0
766.5,1.1407,17.748,0.28746,0.28746,0,0,0
770,1.1588,17.758,0.29461,0.29461,0,0,0
773.5,1.1774,17.764,0.30299,0.30299,0,0,0
777,1.1974,17.751,0.31226,0.31226,0,0,0
779,1.213,17.704,0.32051,0.32051,0,0,0