File: lab_data/DP780_results/DATA/CH_90_3.csv
Time[s],Displacement[mm],Force[kN],AxStrain_1,AxStrain_2,Thickness[mm],OuterWidth[mm],Diameter[mm]
0,0,-0.042986,0,0,1.4956,19.97,5
4,0.001275,0.20021,0.00014399,0.00014399,0,0,0
8,0.001659,0.37726,0.00017898,0.00017898,0,0,0
12,0.001658,0.53893,0.00030495,0.00030495,0,0,0
16,0.002762,0.69946,0.00028196,0.00028196,0,0,0
20,0.002875,0.8628,0.00012399,0.00012399,0,0,0
24,0.003166,1.017,5.30E-05,5.30E-05,0,0,0
28,0.004379,1.172,0.00036093,0.00036093,0,0,0
32,0.004595,1.3213,0.00031195,0.00031195,0,0,0
36,0.00516,1.4606,0.00035794,0.00035794,0,0,0
40,0.006505,1.5968,0.00072973,0.00072973,0,0,0
44,0.00551,1.7286,0.00042491,0.00042491,0,0,0
48,0.007154,1.8561,0.00049288,0.00049288,0,0,0
52,0.008223,1.9778,0.00059083,0.00059083,0,0,0
56,0.007829,2.0997,0.00051287,0.00051287,0,0,0
60,0.009407,2.2181,0.0004559,0.0004559,0,0,0
64,0.008852,2.337,0.00074572,0.00074572,0,0,0
68,0.008927,2.4555,0.00058783,0.00058783,0,0,0
72,0.01104,2.572,0.00086263,0.00086263,0,0,0
76,0.010103,2.6809,0.00086662,0.00086662,0,0,0
80,0.01069,2.7961,0.0006258,0.0006258,0,0,0
84,0.011595,2.9058,0.00081067,0.00081067,0,0,0
88,0.011628,3.017,0.00070675,0.00070675,0,0,0
92,0.012688,3.1254,0.00060582,0.00060582,0,0,0
96,0.014415,3.2339,0.0010684,0.0010684,0,0,0
100,0.013355,3.3421,0.0012223,0.0012223,0,0,0
104,0.01498,3.4562,0.00095155,0.00095155,0,0,0
108,0.015868,3.5657,0.0013241,0.0013241,0,0,0
112,0.014587,3.6746,0.0011713,0.0011713,0,0,0
116,0.016493,3.7836,0.00078469,0.00078469,0,0,0
120,0.016915,3.8916,0.0012003,0.0012003,0,0,0
124,0.014946,4.002,0.0011004,0.0011004,0,0,0
128,0.018051,4.108,0.00094955,0.00094955,0,0,0
132,0.01834,4.2139,0.001438,0.001438,0,0,0
136,0.01769,4.3218,0.0012123,0.0012123,0,0,0
140,0.020121,4.4287,0.0012882,0.0012882,0,0,0
144,0.019913,4.5393,0.001439,0.001439,0,0,0
148,0.018886,4.645,0.0014789,0.0014789,0,0,0
152,0.021887,4.7505,0.0012562,0.0012562,0,0,0
156,0.020297,4.8614,0.0015218,0.0015218,0,0,0
160,0.020321,4.9633,0.0016337,0.0016337,0,0,0
164,0.023279,5.0655,0.0013691,0.0013691,0,0,0
168,0.022477,5.1688,0.0018563,0.0018563,0,0,0
172,0.023227,5.274,0.0017824,0.0017824,0,0,0
176,0.025482,5.38,0.001447,0.001447,0,0,0
180,0.024498,5.4837,0.0015997,0.0015997,0,0,0
184,0.025318,5.5904,0.0018663,0.0018663,0,0,0
188,0.026666,5.6948,0.0014949,0.0014949,0,0,0
192,0.02509,5.7991,0.001981,0.001981,0,0,0
196,0.027237,5.9,0.0023193,0.0023193,0,0,0
200,0.028593,6.0039,0.0018273,0.0018273,0,0,0
204,0.027389,6.1092,0.0020529,0.0020529,0,0,0
208,0.029266,6.2086,0.0026186,0.0026186,0,0,0
212,0.030545,6.3142,0.0020579,0.0020579,0,0,0
216,0.028985,6.4147,0.0022894,0.0022894,0,0,0
220,0.031279,6.5176,0.0027083,0.0027083,0,0,0
224,0.032181,6.6159,0.0022974,0.0022974,0,0,0
228,0.031463,6.7205,0.0025188,0.0025188,0,0,0
232,0.033234,6.8247,0.002816,0.002816,0,0,0
236,0.033279,6.9224,0.0022894,0.0022894,0,0,0
240,0.03378,7.0265,0.002814,0.002814,0,0,0
244,0.035628,7.1213,0.0032308,0.0032308,0,0,0
248,0.036041,7.2296,0.0025577,0.0025577,0,0,0
252,0.036308,7.3294,0.0027891,0.0027891,0,0,0
256,0.037708,7.4334,0.0033584,0.0033584,0,0,0
260,0.037917,7.5394,0.0028011,0.0028011,0,0,0
264,0.039021,7.6388,0.0032138,0.0032138,0,0,0
268,0.040047,7.742,0.0036991,0.0036991,0,0,0
272,0.040726,7.8437,0.0029447,0.0029447,0,0,0
276,0.041825,7.9493,0.0036553,0.0036553,0,0,0
280,0.041982,8.0511,0.0040289,0.0040289,0,0,0
284,0.043053,8.1529,0.0034311,0.0034311,0,0,0
288,0.04469,8.2525,0.0041066,0.0041066,0,0,0
292,0.044933,8.3566,0.0045208,0.0045208,0,0,0
296,0.046187,8.4619,0.0038516,0.0038516,0,0,0
300,0.047512,8.5624,0.0043037,0.0043037,0,0,0
304,0.047632,8.6704,0.0046482,0.0046482,0,0,0
308,0.049782,8.7739,0.0041992,0.0041992,0,0,0
312,0.050544,8.874,0.0052552,0.0052552,0,0,0
316,0.05146,8.978,0.0049607,0.0049607,0,0,0
320,0.05407,9.0794,0.0047029,0.0047029,0,0,0
324,0.053225,9.1822,0.0059771,0.0059771,0,0,0
328,0.055571,9.2861,0.0052283,0.0052283,0,0,0
332,0.057346,9.3895,0.0051895,0.0051895,0,0,0
336,0.0569,9.4943,0.0067214,0.0067214,0,0,0
340,0.060402,9.5956,0.0057862,0.0057862,0,0,0
344,0.060892,9.6966,0.0063399,0.0063399,0,0,0
348,0.061655,9.8019,0.0073092,0.0073092,0,0,0
352,0.065232,9.9038,0.0063379,0.0063379,0,0,0
356,0.065089,10.008,0.0073072,0.0073072,0,0,0
360,0.067964,10.109,0.007867,0.007867,0,0,0
364,0.070076,10.213,0.0071226,0.0071226,0,0,0
368,0.070457,10.315,0.0084641,0.0084641,0,0,0
372,0.073621,10.417,0.008355,0.008355,0,0,0
376,0.074971,10.519,0.0080624,0.0080624,0,0,0
380,0.077341,10.624,0.0098909,0.0098909,0,0,0
384,0.079663,10.725,0.0090024,0.0090024,0,0,0
388,0.081798,10.825,0.0097563,0.0097563,0,0,0
392,0.083795,10.927,0.011098,0.011098,0,0,0
396,0.085596,11.023,0.009879,0.009879,0,0,0
400,0.089917,11.124,0.011516,0.011516,0,0,0
404,0.090747,11.222,0.011962,0.011962,0,0,0
408,0.093712,11.322,0.011219,0.011219,0,0,0
412,0.097503,11.423,0.013406,0.013406,0,0,0
416,0.098352,11.521,0.012771,0.012771,0,0,0
420,0.10326,11.617,0.013178,0.013178,0,0,0
424,0.10614,11.714,0.014984,0.014984,0,0,0
428,0.10878,11.814,0.013912,0.013912,0,0,0
432,0.1129,11.912,0.015352,0.015352,0,0,0
436,0.11569,12.009,0.016681,0.016681,0,0,0
440,0.11935,12.106,0.01561,0.01561,0,0,0
444,0.1226,12.203,0.017712,0.017712,0,0,0
448,0.12819,12.302,0.017934,0.017934,0,0,0
452,0.13061,12.396,0.018012,0.018012,0,0,0
456,0.13458,12.493,0.02015,0.02015,0,0,0
460,0.14024,12.587,0.01975,0.01975,0,0,0
464,0.14311,12.678,0.020634,0.020634,0,0,0
468,0.14853,12.771,0.022329,0.022329,0,0,0
472,0.15267,12.863,0.022001,0.022001,0,0,0
476,0.15791,12.955,0.023547,0.023547,0,0,0
480,0.16186,13.048,0.024284,0.024284,0,0,0
484,0.16735,13.137,0.024577,0.024577,0,0,0
488,0.17359,13.23,0.026229,0.026229,0,0,0
492,0.17697,13.319,0.02674,0.02674,0,0,0
496,0.18388,13.406,0.027581,0.027581,0,0,0
500,0.18895,13.496,0.028714,0.028714,0,0,0
504,0.19515,13.584,0.029189,0.029189,0,0,0
508,0.1998,13.67,0.030611,0.030611,0,0,0
512,0.20758,13.76,0.031372,0.031372,0,0,0
516,0.21321,13.844,0.032499,0.032499,0,0,0
520,0.21866,13.927,0.033588,0.033588,0,0,0
524,0.22591,14.011,0.03493,0.03493,0,0,0
528,0.23215,14.097,0.036123,0.036123,0,0,0
532,0.23922,14.177,0.037212,0.037212,0,0,0
536,0.24447,14.258,0.038331,0.038331,0,0,0
540,0.253,14.34,0.039632,0.039632,0,0,0
544,0.25866,14.418,0.040825,0.040825,0,0,0
548,0.26633,14.497,0.042122,0.042122,0,0,0
552,0.27297,14.579,0.043635,0.043635,0,0,0
556,0.28186,14.656,0.044568,0.044568,0,0,0
560,0.28876,14.739,0.046112,0.046112,0,0,0
564,0.29682,14.816,0.047905,0.047905,0,0,0
568,0.30492,14.89,0.049016,0.049016,0,0,0
572,0.3137,14.969,0.050516,0.050516,0,0,0
576,0.32172,15.043,0.051838,0.051838,0,0,0
580,0.32929,15.117,0.053586,0.053586,0,0,0
584,0.33901,15.192,0.055366,0.055366,0,0,0
588,0.34737,15.266,0.056859,0.056859,0,0,0
592,0.35612,15.339,0.058845,0.058845,0,0,0
596,0.36377,15.41,0.060404,0.060404,0,0,0
600,0.37409,15.477,0.062527,0.062527,0,0,0
604,0.38242,15.544,0.064291,0.064291,0,0,0
608,0.39248,15.612,0.065878,0.065878,0,0,0
612,0.39983,15.679,0.068129,0.068129,0,0,0
616,0.4112,15.744,0.069603,0.069603,0,0,0
620,0.42009,15.808,0.071671,0.071671,0,0,0
624,0.43056,15.871,0.073733,0.073733,0,0,0
628,0.43847,15.936,0.075549,0.075549,0,0,0
632,0.4503,16.001,0.077811,0.077811,0,0,0
636,0.45964,16.062,0.07969,0.07969,0,0,0
640,0.47127,16.125,0.082256,0.082256,0,0,0
644,0.47989,16.189,0.084018,0.084018,0,0,0
648,0.49126,16.244,0.085953,0.085953,0,0,0
652,0.50131,16.302,0.088848,0.088848,0,0,0
656,0.51367,16.359,0.090876,0.090876,0,0,0
660,0.52312,16.417,0.093037,0.093037,0,0,0
664,0.53461,16.475,0.095227,0.095227,0,0,0
668,0.5449,16.53,0.097721,0.097721,0,0,0
672,0.55774,16.587,0.099798,0.099798,0,0,0
676,0.56814,16.637,0.10272,0.10272,0,0,0
680,0.58016,16.693,0.10526,0.10526,0,0,0
684,0.59082,16.747,0.10783,0.10783,0,0,0
688,0.60371,16.795,0.1107,0.1107,0,0,0
692,0.61565,16.849,0.11389,0.11389,0,0,0
696,0.62842,16.899,0.11661,0.11661,0,0,0
700,0.64005,16.947,0.11978,0.11978,0,0,0
704,0.65211,16.998,0.12285,0.12285,0,0,0
708,0.66491,17.046,0.12614,0.12614,0,0,0
712,0.67794,17.089,0.12895,0.12895,0,0,0
716,0.69169,17.135,0.13222,0.13222,0,0,0
720,0.70314,17.18,0.13561,0.13561,0,0,0
724,0.7164,17.225,0.1385,0.1385,0,0,0
728,0.7283,17.268,0.14222,0.14222,0,0,0
732,0.74322,17.309,0.14548,0.14548,0,0,0
736,0.75573,17.354,0.14905,0.14905,0,0,0
740,0.7706,17.397,0.15274,0.15274,0,0,0
744,0.78285,17.438,0.15625,0.15625,0,0,0
748,0.79747,17.481,0.16011,0.16011,0,0,0
752,0.81239,17.521,0.16404,0.16404,0,0,0
756,0.82813,17.559,0.1679,0.1679,0,0,0
760,0.84351,17.601,0.17215,0.17215,0,0,0
764,0.85827,17.636,0.1762,0.1762,0,0,0
768,0.87443,17.673,0.18051,0.18051,0,0,0
772,0.88894,17.71,0.18518,0.18518,0,0,0
776,0.90574,17.745,0.19004,0.19004,0,0,0
780,0.92213,17.776,0.19473,0.19473,0,0,0
784,0.93885,17.812,0.19955,0.19955,0,0,0
788,0.95637,17.845,0.20487,0.20487,0,0,0
792,0.97222,17.874,0.21058,0.21058,0,0,0
796,0.99068,17.904,0.21675,0.21675,0,0,0
800,1.0078,17.932,0.22273,0.22273,0,0,0
804,1.0261,17.957,0.22966,0.22966,0,0,0
808,1.0453,17.978,0.237,0.237,0,0,0
812,1.0636,17.997,0.24477,0.24477,0,0,0
816,1.0854,17.997,0.25559,0.25559,0,0,0
819,1.1067,17.922,0.2702,0.2702,0,0,0