File: LAB_DATA/DP780_results/DATA/CH_90_2.csv
Time[s],Displacement[mm],Force[kN],AxStrain_1,AxStrain_2,Thickness[mm],OuterWidth[mm],Diameter[mm]
0,0,-0.033657,0,0,1.4951,19.976,5
4,0.000643,0.19912,-4.70E-05,-4.70E-05,0,0,0
8,0.001452,0.37557,-0.00020302,-0.00020302,0,0,0
12,0.001538,0.53858,2.60E-05,2.60E-05,0,0,0
16,0.002138,0.69454,-3.00E-05,-3.00E-05,0,0,0
20,0.002277,0.85427,-4.90E-05,-4.90E-05,0,0,0
24,0.003256,1.0107,0.00014299,0.00014299,0,0,0
28,0.00372,1.1618,0.00022597,0.00022597,0,0,0
32,0.003666,1.3073,-8.20E-05,-8.20E-05,0,0,0
36,0.00526,1.4463,0.00013599,0.00013599,0,0,0
40,0.005179,1.5797,0.00019598,0.00019598,0,0,0
44,0.005032,1.7072,1.60E-05,1.60E-05,0,0,0
48,0.006611,1.8316,0.00021498,0.00021498,0,0,0
52,0.00651,1.9563,0.00028296,0.00028296,0,0,0
56,0.006437,2.074,4.20E-05,4.20E-05,0,0,0
60,0.008228,2.1945,0.00060682,0.00060682,0,0,0
64,0.007527,2.3106,0.00055485,0.00055485,0,0,0
68,0.008735,2.4263,0.00046489,0.00046489,0,0,0
72,0.009491,2.5378,0.00067577,0.00067577,0,0,0
76,0.008977,2.6541,0.00060981,0.00060981,0,0,0
80,0.010675,2.7609,0.00041391,0.00041391,0,0,0
84,0.011166,2.8691,0.00073373,0.00073373,0,0,0
88,0.010548,2.9762,0.00064279,0.00064279,0,0,0
92,0.012535,3.085,0.00041791,0.00041791,0,0,0
96,0.012464,3.1885,0.0008996,0.0008996,0,0,0
100,0.011731,3.2945,0.00067177,0.00067177,0,0,0
104,0.014228,3.4073,0.00064979,0.00064979,0,0,0
108,0.013387,3.5108,0.0013171,0.0013171,0,0,0
112,0.013508,3.615,0.00092158,0.00092158,0,0,0
116,0.01599,3.7232,0.00078669,0.00078669,0,0,0
120,0.014094,3.8292,0.0012093,0.0012093,0,0,0
124,0.014872,3.9352,0.00098951,0.00098951,0,0,0
128,0.01727,4.037,0.00083765,0.00083765,0,0,0
132,0.015791,4.1452,0.001439,0.001439,0,0,0
136,0.017095,4.2455,0.0011024,0.0011024,0,0,0
140,0.018512,4.3494,0.0011793,0.0011793,0,0,0
144,0.017037,4.4524,0.0014839,0.0014839,0,0,0
148,0.019254,4.5553,0.0013751,0.0013751,0,0,0
152,0.019851,4.6549,0.0012282,0.0012282,0,0,0
156,0.018414,4.7578,0.0016816,0.0016816,0,0,0
160,0.020663,4.8574,0.001412,0.001412,0,0,0
164,0.021374,4.9558,0.0011863,0.0011863,0,0,0
168,0.020099,5.0523,0.0017495,0.0017495,0,0,0
172,0.022433,5.1507,0.0016766,0.0016766,0,0,0
176,0.022994,5.2505,0.001418,0.001418,0,0,0
180,0.021444,5.3515,0.0021387,0.0021387,0,0,0
184,0.024006,5.4496,0.0018453,0.0018453,0,0,0
188,0.024618,5.5529,0.0012822,0.0012822,0,0,0
192,0.023197,5.6492,0.0019541,0.0019541,0,0,0
196,0.025643,5.7496,0.0018752,0.0018752,0,0,0
200,0.025758,5.8453,0.0016107,0.0016107,0,0,0
204,0.024749,5.9436,0.0020609,0.0020609,0,0,0
208,0.027058,6.0441,0.002441,0.002441,0,0,0
212,0.027713,6.139,0.0018443,0.0018443,0,0,0
216,0.02686,6.2371,0.0023782,0.0023782,0,0,0
220,0.029008,6.3388,0.002464,0.002464,0,0,0
224,0.028868,6.434,0.0021297,0.0021297,0,0,0
228,0.02836,6.532,0.002466,0.002466,0,0,0
232,0.030638,6.6297,0.0027243,0.0027243,0,0,0
236,0.03058,6.7289,0.0021936,0.0021936,0,0,0
240,0.030856,6.8233,0.0026405,0.0026405,0,0,0
244,0.032222,6.923,0.0032397,0.0032397,0,0,0
248,0.032458,7.0235,0.002455,0.002455,0,0,0
252,0.032926,7.1192,0.0027971,0.0027971,0,0,0
256,0.034305,7.2199,0.0034371,0.0034371,0,0,0
260,0.034477,7.3231,0.0025817,0.0025817,0,0,0
264,0.035172,7.4251,0.0031919,0.0031919,0,0,0
268,0.036464,7.5225,0.0036922,0.0036922,0,0,0
272,0.036779,7.623,0.0028709,0.0028709,0,0,0
276,0.037579,7.7251,0.0035118,0.0035118,0,0,0
280,0.038121,7.8248,0.003738,0.003738,0,0,0
284,0.038815,7.9227,0.0030623,0.0030623,0,0,0
288,0.039705,8.0236,0.0037699,0.0037699,0,0,0
292,0.040289,8.1256,0.0039153,0.0039153,0,0,0
296,0.041966,8.2264,0.003463,0.003463,0,0,0
300,0.042092,8.3254,0.0047009,0.0047009,0,0,0
304,0.043534,8.4298,0.0040976,0.0040976,0,0,0
308,0.044785,8.5339,0.0040209,0.0040209,0,0,0
312,0.044913,8.6359,0.005478,0.005478,0,0,0
316,0.047181,8.7366,0.004472,0.004472,0,0,0
320,0.047351,8.841,0.0047328,0.0047328,0,0,0
324,0.048009,8.9403,0.005822,0.005822,0,0,0
328,0.051118,9.043,0.0048184,0.0048184,0,0,0
332,0.050684,9.1459,0.0054193,0.0054193,0,0,0
336,0.052201,9.2486,0.0062494,0.0062494,0,0,0
340,0.05424,9.3524,0.0051925,0.0051925,0,0,0
344,0.054328,9.4526,0.0065763,0.0065763,0,0,0
348,0.05765,9.5528,0.0063577,0.0063577,0,0,0
352,0.057848,9.6533,0.0060169,0.0060169,0,0,0
356,0.058196,9.7564,0.0076943,0.0076943,0,0,0
360,0.062392,9.8575,0.0065982,0.0065982,0,0,0
364,0.06181,9.9605,0.0068525,0.0068525,0,0,0
368,0.063953,10.061,0.0084532,0.0084532,0,0,0
372,0.066701,10.162,0.0072973,0.0072973,0,0,0
376,0.066853,10.267,0.0083748,0.0083748,0,0,0
380,0.070118,10.367,0.0091312,0.0091312,0,0,0
384,0.071701,10.468,0.0080178,0.0080178,0,0,0
388,0.073213,10.567,0.0098028,0.0098028,0,0,0
392,0.075885,10.668,0.0093036,0.0093036,0,0,0
396,0.077882,10.771,0.0090915,0.0090915,0,0,0
400,0.07995,10.868,0.011405,0.011405,0,0,0
404,0.082019,10.971,0.0098444,0.0098444,0,0,0
408,0.085838,11.07,0.010509,0.010509,0,0,0
412,0.086918,11.171,0.012215,0.012215,0,0,0
416,0.089276,11.266,0.011047,0.011047,0,0,0
420,0.093707,11.369,0.012597,0.012597,0,0,0
424,0.094308,11.465,0.013225,0.013225,0,0,0
428,0.098521,11.562,0.012483,0.012483,0,0,0
432,0.10194,11.659,0.014602,0.014602,0,0,0
436,0.10314,11.76,0.014535,0.014535,0,0,0
440,0.10857,11.857,0.014395,0.014395,0,0,0
444,0.11098,11.956,0.016556,0.016556,0,0,0
448,0.1146,12.055,0.015716,0.015716,0,0,0
452,0.11823,12.154,0.017046,0.017046,0,0,0
456,0.12308,12.25,0.0183,0.0183,0,0,0
460,0.12572,12.345,0.017667,0.017667,0,0,0
464,0.12957,12.438,0.019502,0.019502,0,0,0
468,0.13564,12.534,0.020008,0.020008,0,0,0
472,0.13751,12.626,0.02018,0.02018,0,0,0
476,0.14327,12.721,0.022092,0.022092,0,0,0
480,0.14805,12.811,0.022201,0.022201,0,0,0
484,0.15212,12.904,0.022863,0.022863,0,0,0
488,0.15675,12.994,0.024626,0.024626,0,0,0
492,0.16159,13.085,0.024784,0.024784,0,0,0
496,0.16724,13.174,0.025844,0.025844,0,0,0
500,0.17068,13.27,0.027272,0.027272,0,0,0
504,0.17771,13.353,0.027867,0.027867,0,0,0
508,0.18255,13.439,0.028964,0.028964,0,0,0
512,0.18738,13.528,0.030027,0.030027,0,0,0
516,0.19343,13.613,0.03076,0.03076,0,0,0
520,0.19952,13.699,0.032104,0.032104,0,0,0
524,0.2058,13.784,0.03316,0.03316,0,0,0
528,0.21031,13.871,0.033991,0.033991,0,0,0
532,0.2188,13.951,0.035253,0.035253,0,0,0
536,0.22436,14.03,0.036777,0.036777,0,0,0
540,0.23051,14.114,0.037673,0.037673,0,0,0
544,0.23643,14.194,0.039333,0.039333,0,0,0
548,0.2443,14.274,0.040412,0.040412,0,0,0
552,0.25089,14.353,0.041599,0.041599,0,0,0
556,0.25665,14.431,0.043294,0.043294,0,0,0
560,0.26442,14.511,0.043937,0.043937,0,0,0
564,0.27184,14.589,0.04577,0.04577,0,0,0
568,0.27971,14.661,0.047135,0.047135,0,0,0
572,0.28522,14.738,0.048243,0.048243,0,0,0
576,0.29464,14.811,0.050144,0.050144,0,0,0
580,0.30124,14.88,0.051357,0.051357,0,0,0
584,0.30941,14.957,0.053071,0.053071,0,0,0
588,0.31593,15.03,0.054706,0.054706,0,0,0
592,0.32512,15.097,0.055739,0.055739,0,0,0
596,0.33321,15.171,0.057693,0.057693,0,0,0
600,0.34104,15.241,0.059396,0.059396,0,0,0
604,0.34822,15.312,0.060743,0.060743,0,0,0
608,0.35827,15.378,0.062688,0.062688,0,0,0
612,0.36807,15.446,0.064205,0.064205,0,0,0
616,0.37514,15.513,0.066004,0.066004,0,0,0
620,0.38366,15.579,0.067796,0.067796,0,0,0
624,0.39284,15.645,0.069446,0.069446,0,0,0
628,0.40309,15.708,0.07141,0.07141,0,0,0
632,0.4113,15.771,0.07333,0.07333,0,0,0
636,0.42135,15.834,0.07525,0.07525,0,0,0
640,0.42964,15.897,0.077269,0.077269,0,0,0
644,0.44112,15.959,0.079218,0.079218,0,0,0
648,0.45008,16.02,0.081577,0.081577,0,0,0
652,0.46023,16.079,0.083482,0.083482,0,0,0
656,0.46881,16.138,0.08576,0.08576,0,0,0
660,0.48104,16.198,0.087897,0.087897,0,0,0
664,0.49031,16.256,0.089755,0.089755,0,0,0
668,0.50134,16.311,0.092259,0.092259,0,0,0
672,0.50962,16.367,0.094555,0.094555,0,0,0
676,0.52205,16.426,0.096845,0.096845,0,0,0
680,0.5324,16.481,0.099912,0.099912,0,0,0
684,0.54464,16.534,0.10233,0.10233,0,0,0
688,0.55387,16.587,0.10463,0.10463,0,0,0
692,0.56614,16.641,0.10774,0.10774,0,0,0
696,0.57664,16.696,0.11017,0.11017,0,0,0
700,0.59015,16.748,0.11293,0.11293,0,0,0
704,0.60077,16.796,0.11581,0.11581,0,0,0
708,0.61326,16.849,0.11886,0.11886,0,0,0
712,0.62387,16.898,0.12146,0.12146,0,0,0
716,0.63773,16.948,0.12462,0.12462,0,0,0
720,0.64992,16.999,0.1275,0.1275,0,0,0
724,0.66314,17.046,0.13041,0.13041,0,0,0
728,0.67482,17.089,0.13407,0.13407,0,0,0
732,0.68762,17.134,0.13673,0.13673,0,0,0
736,0.70016,17.183,0.14023,0.14023,0,0,0
740,0.71357,17.226,0.14382,0.14382,0,0,0
744,0.7272,17.272,0.14759,0.14759,0,0,0
748,0.7399,17.312,0.15109,0.15109,0,0,0
752,0.75293,17.353,0.15458,0.15458,0,0,0
756,0.76637,17.396,0.15879,0.15879,0,0,0
760,0.78155,17.437,0.16235,0.16235,0,0,0
764,0.79511,17.477,0.16701,0.16701,0,0,0
768,0.81032,17.516,0.17095,0.17095,0,0,0
772,0.82316,17.551,0.17582,0.17582,0,0,0
776,0.83785,17.59,0.17935,0.17935,0,0,0
780,0.85171,17.627,0.18483,0.18483,0,0,0
784,0.86715,17.662,0.18905,0.18905,0,0,0
788,0.88285,17.697,0.193,0.193,0,0,0
792,0.89799,17.731,0.19782,0.19782,0,0,0
796,0.9137,17.762,0.2041,0.2041,0,0,0
800,0.92839,17.792,0.20915,0.20915,0,0,0
804,0.94455,17.825,0.21335,0.21335,0,0,0
808,0.96,17.857,0.21869,0.21869,0,0,0
812,0.97759,17.888,0.22442,0.22442,0,0,0
816,0.9942,17.913,0.23008,0.23008,0,0,0
820,1.0114,17.94,0.23578,0.23578,0,0,0
824,1.0297,17.968,0.24253,0.24253,0,0,0
828,1.0466,17.99,0.24933,0.24933,0,0,0
832,1.0655,18.011,0.25646,0.25646,0,0,0
836,1.0839,18.03,0.26391,0.26391,0,0,0
840,1.1037,18.034,0.2724,0.2724,0,0,0
842,1.1167,18.013,0.27973,0.27973,0,0,0