File: lab_data/DP780_results/DATA/NT20_00_1.csv
Time[s],Displacement[mm],Force[kN],AxStrain_1,AxStrain_2,Thickness[mm],OuterWidth[mm],InnerWidth[mm]
0,0,-0.039067,0,0,1.4956,20.012,9.9829
3,0.000338,0.14838,1.5e-05,0,0,0,0
6,0.000934,0.28407,-7e-06,0,0,0,0
9,0.001458,0.41075,-8.3003e-05,0,0,0,0
12,0.001887,0.53779,0.00010099,0,0,0,0
15,0.002141,0.66002,0.00012199,0,0,0,0
18,0.002001,0.78227,-0.00018902,0,0,0,0
21,0.002898,0.90301,-0.00022002,0,0,0,0
24,0.003729,1.0179,0.00022298,0,0,0,0
27,0.003794,1.1321,-3e-05,0,0,0,0
30,0.004521,1.2391,9.4995e-05,0,0,0,0
33,0.005248,1.3463,-3.7001e-05,0,0,0,0
36,0.005639,1.4495,0.00017598,0,0,0,0
39,0.005852,1.5506,1.7e-05,0,0,0,0
42,0.006886,1.6537,-0.00016901,0,0,0,0
45,0.00747,1.7537,0.00027096,0,0,0,0
48,0.007531,1.8484,0.00013899,0,0,0,0
51,0.008102,1.945,5.3999e-05,0,0,0,0
54,0.00939,2.0413,4.3999e-05,0,0,0,0
57,0.009881,2.1391,0.00025397,0,0,0,0
60,0.009774,2.2307,0.00024397,0,0,0,0
63,0.01026,2.3245,0.00016899,0,0,0,0
66,0.012102,2.4184,0.00019598,0,0,0,0
69,0.011619,2.5106,0.00030195,0,0,0,0
72,0.011822,2.5976,0.00022397,0,0,0,0
75,0.013289,2.6858,0.00014599,0,0,0,0
78,0.014174,2.7775,0.00033894,0,0,0,0
81,0.013596,2.8648,0.00036293,0,0,0,0
84,0.013718,2.9516,0.00015599,0,0,0,0
87,0.01542,3.0388,0.00052786,0,0,0,0
90,0.016383,3.1214,0.00016699,0,0,0,0
93,0.01562,3.2117,0.00046089,0,0,0,0
96,0.016211,3.2983,0.00021798,0,0,0,0
99,0.017935,3.3827,0.00016699,0,0,0,0
102,0.018177,3.4701,0.00041391,0,0,0,0
105,0.01804,3.5566,0.0006338,0,0,0,0
108,0.018894,3.6407,0.00053286,0,0,0,0
111,0.020303,3.7257,0.00049188,0,0,0,0
114,0.020423,3.8104,0.00061081,0,0,0,0
117,0.02033,3.8951,0.0007797,0,0,0,0
120,0.021374,3.9769,0.00054285,0,0,0,0
123,0.022891,4.0624,0.0007797,0,0,0,0
126,0.022854,4.1414,0.0012532,0,0,0,0
129,0.022884,4.2221,0.00064479,0,0,0,0
132,0.024367,4.3039,0.00050987,0,0,0,0
135,0.025209,4.3854,0.00064479,0,0,0,0
138,0.025813,4.4648,0.0011523,0,0,0,0
141,0.025944,4.5453,0.00071375,0,0,0,0
144,0.027157,4.6252,0.0007807,0,0,0,0
147,0.027864,4.7013,0.00091658,0,0,0,0
150,0.028435,4.7816,0.0010185,0,0,0,0
153,0.028802,4.8599,0.0011194,0,0,0,0
156,0.029847,4.9362,0.0010514,0,0,0,0
159,0.030959,5.013,0.0013571,0,0,0,0
162,0.031497,5.0891,0.0013251,0,0,0,0
165,0.032102,5.1677,0.0010534,0,0,0,0
168,0.032742,5.2416,0.0012562,0,0,0,0
171,0.033854,5.319,0.0015268,0,0,0,0
174,0.034968,5.4016,0.0015288,0,0,0,0
177,0.036014,5.4784,0.001426,0,0,0,0
180,0.036789,5.5542,0.0012572,0,0,0,0
183,0.037396,5.6364,0.0015947,0,0,0,0
186,0.03878,5.7103,0.0015618,0,0,0,0
189,0.040097,5.7899,0.0014949,0,0,0,0
192,0.040568,5.8661,0.0013591,0,0,0,0
195,0.041378,5.9401,0.0018992,0,0,0,0
198,0.043202,6.016,0.0016976,0,0,0,0
201,0.044824,6.0942,0.0016976,0,0,0,0
204,0.045465,6.1685,0.0020339,0,0,0,0
207,0.04641,6.2462,0.0023053,0,0,0,0
210,0.048607,6.3238,0.0022046,0,0,0,0
213,0.050432,6.4034,0.0021726,0,0,0,0
216,0.051073,6.4802,0.0020359,0,0,0,0
219,0.051918,6.5561,0.0023423,0,0,0,0
222,0.054453,6.6313,0.0025138,0,0,0,0
225,0.056211,6.7086,0.0023433,0,0,0,0
228,0.057259,6.7869,0.0026804,0,0,0,0
231,0.058814,6.8599,0.0030842,0,0,0,0
234,0.061214,6.9348,0.0028838,0,0,0,0
237,0.063175,7.0132,0.0031849,0,0,0,0
240,0.065068,7.0876,0.0032178,0,0,0,0
243,0.066961,7.1642,0.0039601,0,0,0,0
246,0.069125,7.2481,0.0037589,0,0,0,0
249,0.071289,7.3167,0.0037589,0,0,0,0
252,0.074501,7.3913,0.0040946,0,0,0,0
255,0.077274,7.4683,0.0046024,0,0,0,0
258,0.079134,7.5434,0.0044352,0,0,0,0
261,0.081264,7.6142,0.0043007,0,0,0,0
264,0.085591,7.6915,0.0050094,0,0,0,0
267,0.088465,7.7657,0.0053119,0,0,0,0
270,0.090866,7.8368,0.00528,0,0,0,0
273,0.094112,7.9093,0.0054461,0,0,0,0
276,0.097661,7.9813,0.0059831,0,0,0,0
279,0.10111,8.0519,0.0065545,0,0,0,0
282,0.10497,8.1233,0.0063528,0,0,0,0
285,0.10882,8.1949,0.0064849,0,0,0,0
288,0.11196,8.2638,0.0077261,0,0,0,0
291,0.11656,8.3337,0.0076606,0,0,0,0
294,0.12143,8.4032,0.0074254,0,0,0,0
297,0.12556,8.4693,0.0080624,0,0,0,0
300,0.12975,8.5378,0.008935,0,0,0,0
303,0.13468,8.6058,0.0089013,0,0,0,0
306,0.13925,8.6711,0.0091361,0,0,0,0
309,0.14452,8.7387,0.010073,0,0,0,0
312,0.15027,8.8032,0.010676,0,0,0,0
315,0.15433,8.8656,0.010543,0,0,0,0
318,0.1598,8.9327,0.010677,0,0,0,0
321,0.16579,8.9943,0.012014,0,0,0,0
324,0.17126,9.0566,0.012348,0,0,0,0
327,0.17772,9.1195,0.012049,0,0,0,0
330,0.18381,9.1797,0.012216,0,0,0,0
333,0.18908,9.2416,0.013817,0,0,0,0
336,0.19587,9.2996,0.014017,0,0,0,0
339,0.20183,9.3633,0.01382,0,0,0,0
342,0.20825,9.4236,0.014652,0,0,0,0
345,0.21582,9.4825,0.015685,0,0,0,0
348,0.2217,9.5374,0.015685,0,0,0,0
351,0.22833,9.5949,0.015951,0,0,0,0
354,0.23587,9.6553,0.017114,0,0,0,0
357,0.24239,9.7099,0.017977,0,0,0,0
360,0.2505,9.7696,0.018278,0,0,0,0
363,0.25818,9.823,0.018476,0,0,0,0
366,0.26508,9.8788,0.019736,0,0,0,0
369,0.27305,9.9335,0.020399,0,0,0,0
372,0.28042,9.9857,0.020565,0,0,0,0
375,0.2885,10.038,0.021292,0,0,0,0
378,0.29746,10.091,0.022451,0,0,0,0
381,0.3053,10.142,0.023078,0,0,0,0
384,0.31426,10.194,0.023309,0,0,0,0
387,0.32227,10.246,0.024463,0,0,0,0
390,0.33038,10.295,0.025024,0,0,0,0
393,0.33917,10.342,0.025683,0,0,0,0
396,0.34766,10.394,0.026341,0,0,0,0
399,0.35787,10.441,0.027526,0,0,0,0
402,0.36672,10.488,0.028118,0,0,0,0
405,0.37609,10.535,0.029101,0,0,0,0
408,0.38562,10.583,0.029759,0,0,0,0
411,0.39451,10.63,0.030971,0,0,0,0
414,0.40478,10.674,0.031627,0,0,0,0
417,0.41411,10.72,0.032411,0,0,0,0
420,0.42436,10.762,0.033393,0,0,0,0
423,0.43467,10.802,0.034405,0,0,0,0
426,0.44515,10.847,0.035091,0,0,0,0
429,0.45572,10.888,0.036068,0,0,0,0
432,0.46559,10.933,0.036883,0,0,0,0
435,0.47662,10.971,0.037796,0,0,0,0
438,0.48669,11.009,0.038707,0,0,0,0
441,0.49801,11.051,0.039485,0,0,0,0
444,0.50873,11.091,0.040655,0,0,0,0
447,0.52059,11.129,0.041791,0,0,0,0
450,0.53185,11.169,0.042535,0,0,0,0
453,0.54293,11.204,0.043636,0,0,0,0
456,0.55487,11.241,0.045026,0,0,0,0
459,0.56572,11.278,0.045995,0,0,0,0
462,0.57772,11.314,0.046866,0,0,0,0
465,0.58864,11.347,0.048382,0,0,0,0
468,0.60138,11.383,0.04925,0,0,0,0
471,0.61304,11.416,0.050312,0,0,0,0
474,0.62534,11.452,0.05134,0,0,0,0
477,0.63795,11.482,0.053103,0,0,0,0
480,0.65049,11.516,0.054064,0,0,0,0
483,0.66327,11.546,0.055281,0,0,0,0
486,0.67564,11.576,0.056814,0,0,0,0
489,0.68876,11.608,0.058186,0,0,0,0
492,0.70069,11.638,0.059397,0,0,0,0
495,0.71441,11.665,0.06083,0,0,0,0
498,0.72698,11.696,0.061752,0,0,0,0
501,0.74101,11.723,0.063148,0,0,0,0
504,0.75375,11.751,0.064544,0,0,0,0
507,0.76822,11.776,0.065904,0,0,0,0
510,0.78097,11.803,0.067391,0,0,0,0
513,0.79577,11.832,0.069032,0,0,0,0
516,0.80909,11.855,0.070355,0,0,0,0
519,0.82362,11.88,0.071835,0,0,0,0
522,0.83734,11.905,0.073564,0,0,0,0
525,0.85195,11.925,0.074881,0,0,0,0
528,0.86533,11.949,0.076604,0,0,0,0
531,0.87997,11.97,0.078388,0,0,0,0
534,0.89423,11.993,0.080073,0,0,0,0
537,0.90914,12.013,0.081381,0,0,0,0
540,0.92317,12.035,0.08353,0,0,0,0
543,0.93851,12.055,0.085238,0,0,0,0
546,0.95301,12.077,0.087006,0,0,0,0
549,0.9692,12.095,0.088771,0,0,0,0
552,0.9837,12.115,0.090563,0,0,0,0
555,0.99989,12.134,0.092229,0,0,0,0
558,1.0148,12.15,0.0942,0,0,0,0
561,1.0311,12.165,0.096044,0,0,0,0
564,1.0463,12.183,0.098189,0,0,0,0
567,1.063,12.199,0.10039,0,0,0,0
570,1.0779,12.214,0.10229,0,0,0,0
573,1.0941,12.227,0.10476,0,0,0,0
576,1.1096,12.242,0.10731,0,0,0,0
579,1.1263,12.257,0.10937,0,0,0,0
582,1.1421,12.267,0.11149,0,0,0,0
585,1.1585,12.279,0.11411,0,0,0,0
588,1.1751,12.294,0.11637,0,0,0,0
591,1.1916,12.302,0.1189,0,0,0,0
594,1.2085,12.315,0.12139,0,0,0,0
597,1.2253,12.327,0.12405,0,0,0,0
600,1.2426,12.334,0.1267,0,0,0,0
603,1.2595,12.339,0.12953,0,0,0,0
606,1.2774,12.351,0.13214,0,0,0,0
609,1.2944,12.357,0.13512,0,0,0,0
612,1.3121,12.365,0.13834,0,0,0,0
615,1.3294,12.372,0.14089,0,0,0,0
618,1.3475,12.384,0.144,0,0,0,0
621,1.3645,12.382,0.14666,0,0,0,0
624,1.3828,12.388,0.14969,0,0,0,0
627,1.4011,12.389,0.15318,0,0,0,0
630,1.4193,12.393,0.15619,0,0,0,0
633,1.4381,12.396,0.1602,0,0,0,0
636,1.4561,12.394,0.16391,0,0,0,0
639,1.4751,12.396,0.16743,0,0,0,0
642,1.4935,12.397,0.17146,0,0,0,0
645,1.5127,12.396,0.17535,0,0,0,0
648,1.5314,12.396,0.17925,0,0,0,0
651,1.5502,12.394,0.18337,0,0,0,0
654,1.5694,12.389,0.1875,0,0,0,0
657,1.588,12.385,0.19236,0,0,0,0
660,1.6076,12.381,0.19659,0,0,0,0
663,1.6263,12.374,0.20119,0,0,0,0
666,1.6461,12.371,0.20654,0,0,0,0
669,1.6659,12.362,0.21153,0,0,0,0
672,1.6856,12.351,0.21721,0,0,0,0
675,1.7058,12.343,0.22239,0,0,0,0
678,1.7255,12.333,0.22835,0,0,0,0
681,1.746,12.321,0.23414,0,0,0,0
684,1.7662,12.31,0.23985,0,0,0,0
687,1.7865,12.294,0.246,0,0,0,0
690,1.8074,12.279,0.25193,0,0,0,0
693,1.8276,12.261,0.2584,0,0,0,0
696,1.8489,12.242,0.26534,0,0,0,0
699,1.8695,12.222,0.27239,0,0,0,0
702,1.8905,12.201,0.27942,0,0,0,0
705,1.912,12.177,0.28704,0,0,0,0
708,1.9328,12.154,0.2953,0,0,0,0
711,1.9548,12.124,0.30336,0,0,0,0
714,1.9763,12.094,0.31238,0,0,0,0
717,1.9981,12.062,0.32071,0,0,0,0
720,2.0204,12.025,0.32991,0,0,0,0
723,2.0423,11.98,0.33908,0,0,0,0
726,2.066,11.914,0.34974,0,0,0,0
726.5,2.0705,11.892,0.35197,0,0,0,0