File: polyN_optimization/DP780_results/DATA/CH_90_1.csv
Time[s],Displacement[mm],Force[kN],AxStrain_1,AxStrain_2,Thickness[mm],OuterWidth[mm],Diameter[mm]
0,0,-0.039778,0,0,1.4959,20,5
4,0.001271,0.18291,-9.40E-05,-9.40E-05,0,0,0
8,0.000964,0.36325,0.00025697,0.00025697,0,0,0
12,0.002173,0.52764,0.00020498,0.00020498,0,0,0
16,0.002916,0.68704,-7.10E-05,-7.10E-05,0,0,0
20,0.002661,0.84721,-5.30E-05,-5.30E-05,0,0,0
24,0.003421,1.0036,0.0004549,0.0004549,0,0,0
28,0.004863,1.1588,0.00010199,0.00010199,0,0,0
32,0.004112,1.3002,0.00010199,0.00010199,0,0,0
36,0.004358,1.4368,0.00015099,0.00015099,0,0,0
40,0.00641,1.5717,0.00034594,0.00034594,0,0,0
44,0.005519,1.6991,0.00021798,0.00021798,0,0,0
48,0.007064,1.8241,0.00060981,0.00060981,0,0,0
52,0.007281,1.9476,0.00039892,0.00039892,0,0,0
56,0.007056,2.0693,0.0004369,0.0004369,0,0,0
60,0.009348,2.1881,0.00065479,0.00065479,0,0,0
64,0.00845,2.3101,0.00030195,0.00030195,0,0,0
68,0.008811,2.4298,0.00029096,0.00029096,0,0,0
72,0.011052,2.5482,0.00043391,0.00043391,0,0,0
76,0.009797,2.665,0.00032495,0.00032495,0,0,0
80,0.010653,2.7762,0.00050887,0.00050887,0,0,0
84,0.012637,2.8918,0.00090459,0.00090459,0,0,0
88,0.011233,2.9968,0.00060382,0.00060382,0,0,0
92,0.012002,3.109,0.00050387,0.00050387,0,0,0
96,0.013981,3.2159,0.00074172,0.00074172,0,0,0
100,0.012343,3.328,0.00053086,0.00053086,0,0,0
104,0.013861,3.4374,0.00066978,0.00066978,0,0,0
108,0.015645,3.545,0.00094355,0.00094355,0,0,0
112,0.014278,3.6544,0.00069576,0.00069576,0,0,0
116,0.015646,3.759,0.00053885,0.00053885,0,0,0
120,0.017389,3.8682,0.00093656,0.00093656,0,0,0
124,0.015806,3.9748,0.00061081,0.00061081,0,0,0
128,0.016987,4.0796,0.00057284,0.00057284,0,0,0
132,0.018433,4.186,0.00083465,0.00083465,0,0,0
136,0.017102,4.2884,0.00087162,0.00087162,0,0,0
140,0.018515,4.3942,0.00053286,0.00053286,0,0,0
144,0.020337,4.4968,0.0010604,0.0010604,0,0,0
148,0.018771,4.599,0.00091358,0.00091358,0,0,0
152,0.020144,4.704,0.00061581,0.00061581,0,0,0
156,0.021749,4.8052,0.00061881,0.00061881,0,0,0
160,0.020234,4.9068,0.00076771,0.00076771,0,0,0
164,0.021572,5.0093,0.00046389,0.00046389,0,0,0
168,0.022911,5.1067,0.0011394,0.0011394,0,0,0
172,0.021618,5.2078,0.0010644,0.0010644,0,0,0
176,0.023488,5.3127,0.00095355,0.00095355,0,0,0
180,0.024951,5.4142,0.00095654,0.00095654,0,0,0
184,0.023137,5.5123,0.0011104,0.0011104,0,0,0
188,0.025007,5.6126,0.0008896,0.0008896,0,0,0
192,0.026235,5.7127,0.0008906,0.0008906,0,0,0
196,0.024983,5.8135,0.0012642,0.0012642,0,0,0
200,0.02656,5.911,0.00095854,0.00095854,0,0,0
204,0.028139,6.0096,0.0012592,0.0012592,0,0,0
208,0.027006,6.1087,0.0015598,0.0015598,0,0,0
212,0.028236,6.2043,0.0012992,0.0012992,0,0,0
216,0.029241,6.3008,0.0011913,0.0011913,0,0,0
220,0.028973,6.3928,0.0015328,0.0015328,0,0,0
224,0.029994,6.4881,0.0012762,0.0012762,0,0,0
228,0.031314,6.5805,0.0010185,0.0010185,0,0,0
232,0.030785,6.6742,0.0012382,0.0012382,0,0,0
236,0.031647,6.7683,0.0014599,0.0014599,0,0,0
240,0.032848,6.8566,0.001381,0.001381,0,0,0
244,0.032668,6.9465,0.0015308,0.0015308,0,0,0
248,0.03347,7.0414,0.0017944,0.0017944,0,0,0
252,0.034422,7.1315,0.0014979,0.0014979,0,0,0
256,0.034876,7.2263,0.0015388,0.0015388,0,0,0
260,0.035628,7.3181,0.0019202,0.0019202,0,0,0
264,0.03631,7.4126,0.00144,0.00144,0,0,0
268,0.036766,7.5013,0.0015238,0.0015238,0,0,0
272,0.037567,7.5949,0.0017864,0.0017864,0,0,0
276,0.038527,7.6895,0.0017475,0.0017475,0,0,0
280,0.039097,7.7796,0.0016666,0.0016666,0,0,0
284,0.040345,7.872,0.002002,0.002002,0,0,0
288,0.040838,7.9624,0.0022634,0.0022634,0,0,0
292,0.041479,8.0583,0.0019631,0.0019631,0,0,0
296,0.042801,8.153,0.0022984,0.0022984,0,0,0
300,0.042924,8.2469,0.0026016,0.0026016,0,0,0
304,0.043577,8.3374,0.0022624,0.0022624,0,0,0
308,0.045655,8.4336,0.0026026,0.0026026,0,0,0
312,0.045707,8.5269,0.0030174,0.0030174,0,0,0
316,0.046505,8.6176,0.0023433,0.0023433,0,0,0
320,0.048842,8.7167,0.0028709,0.0028709,0,0,0
324,0.047902,8.8078,0.0034361,0.0034361,0,0,0
328,0.049258,8.9024,0.0029128,0.0029128,0,0,0
332,0.05227,9.0005,0.0031769,0.0031769,0,0,0
336,0.05133,9.0953,0.0038536,0.0038536,0,0,0
340,0.052686,9.1887,0.0032926,0.0032926,0,0,0
344,0.054607,9.287,0.0034461,0.0034461,0,0,0
348,0.054835,9.3853,0.004234,0.004234,0,0,0
352,0.056869,9.4805,0.0038625,0.0038625,0,0,0
356,0.059242,9.5769,0.0039402,0.0039402,0,0,0
360,0.059026,9.6725,0.0048024,0.0048024,0,0,0
364,0.061395,9.7705,0.0043565,0.0043565,0,0,0
368,0.063691,9.8677,0.0044322,0.0044322,0,0,0
372,0.063237,9.9642,0.0055565,0.0055565,0,0,0
376,0.066317,10.063,0.004885,0.004885,0,0,0
380,0.067968,10.164,0.0050363,0.0050363,0,0,0
384,0.068224,10.264,0.0062673,0.0062673,0,0,0
388,0.071447,10.361,0.0055973,0.0055973,0,0,0
392,0.072983,10.459,0.0060079,0.0060079,0,0,0
396,0.07455,10.557,0.0074273,0.0074273,0,0,0
400,0.076871,10.653,0.0064968,0.0064968,0,0,0
404,0.078663,10.748,0.0067174,0.0067174,0,0,0
408,0.081318,10.851,0.0080257,0.0080257,0,0,0
412,0.082431,10.948,0.0072775,0.0072775,0,0,0
416,0.085464,11.043,0.0082122,0.0082122,0,0,0
420,0.088343,11.144,0.0092897,0.0092897,0,0,0
424,0.089418,11.243,0.0085811,0.0085811,0,0,0
428,0.093537,11.34,0.0097374,0.0097374,0,0,0
432,0.096039,11.435,0.010665,0.010665,0,0,0
436,0.097563,11.532,0.0099592,0.0099592,0,0,0
440,0.10194,11.631,0.011295,0.011295,0,0,0
444,0.10403,11.726,0.011776,0.011776,0,0,0
448,0.10679,11.824,0.011255,0.011255,0,0,0
452,0.11097,11.922,0.013,0.013,0,0,0
456,0.1138,12.019,0.013372,0.013372,0,0,0
460,0.11784,12.113,0.013086,0.013086,0,0,0
464,0.12078,12.209,0.015225,0.015225,0,0,0
468,0.12466,12.306,0.015259,0.015259,0,0,0
472,0.12952,12.401,0.01552,0.01552,0,0,0
476,0.13141,12.492,0.017069,0.017069,0,0,0
480,0.13747,12.584,0.01718,0.01718,0,0,0
484,0.1409,12.676,0.017884,0.017884,0,0,0
488,0.14496,12.77,0.018952,0.018952,0,0,0
492,0.15023,12.86,0.019284,0.019284,0,0,0
496,0.15432,12.953,0.020209,0.020209,0,0,0
500,0.15914,13.043,0.021309,0.021309,0,0,0
504,0.1632,13.133,0.021792,0.021792,0,0,0
508,0.16963,13.222,0.022713,0.022713,0,0,0
512,0.17426,13.309,0.023996,0.023996,0,0,0
516,0.17813,13.395,0.024735,0.024735,0,0,0
520,0.18497,13.483,0.025575,0.025575,0,0,0
524,0.19008,13.57,0.026859,0.026859,0,0,0
528,0.19612,13.654,0.027884,0.027884,0,0,0
532,0.20078,13.74,0.028948,0.028948,0,0,0
536,0.20777,13.823,0.03004,0.03004,0,0,0
540,0.21397,13.904,0.031466,0.031466,0,0,0
544,0.21858,13.987,0.032342,0.032342,0,0,0
548,0.22583,14.068,0.033614,0.033614,0,0,0
552,0.23169,14.147,0.035358,0.035358,0,0,0
556,0.23931,14.232,0.036411,0.036411,0,0,0
560,0.24415,14.314,0.037971,0.037971,0,0,0
564,0.25158,14.392,0.039452,0.039452,0,0,0
568,0.25932,14.471,0.040646,0.040646,0,0,0
572,0.26589,14.547,0.042372,0.042372,0,0,0
576,0.27317,14.623,0.043634,0.043634,0,0,0
580,0.27929,14.699,0.044892,0.044892,0,0,0
584,0.28861,14.776,0.046579,0.046579,0,0,0
588,0.29469,14.846,0.047797,0.047797,0,0,0
592,0.30306,14.921,0.049552,0.049552,0,0,0
596,0.3102,14.995,0.05116,0.05116,0,0,0
600,0.31895,15.071,0.0523,0.0523,0,0,0
604,0.32642,15.143,0.054618,0.054618,0,0,0
608,0.33419,15.214,0.055899,0.055899,0,0,0
612,0.34274,15.289,0.057352,0.057352,0,0,0
616,0.35089,15.353,0.059625,0.059625,0,0,0
620,0.36105,15.421,0.060968,0.060968,0,0,0
624,0.36795,15.489,0.062664,0.062664,0,0,0
628,0.37741,15.554,0.064571,0.064571,0,0,0
632,0.38592,15.62,0.066226,0.066226,0,0,0
636,0.39583,15.683,0.067911,0.067911,0,0,0
640,0.40382,15.753,0.070018,0.070018,0,0,0
644,0.41309,15.813,0.071384,0.071384,0,0,0
648,0.42166,15.874,0.073518,0.073518,0,0,0
652,0.43247,15.936,0.075752,0.075752,0,0,0
656,0.44223,15.999,0.077284,0.077284,0,0,0
660,0.45116,16.059,0.079232,0.079232,0,0,0
664,0.46089,16.119,0.081662,0.081662,0,0,0
668,0.47072,16.181,0.083775,0.083775,0,0,0
672,0.4818,16.237,0.086054,0.086054,0,0,0
676,0.49152,16.297,0.088227,0.088227,0,0,0
680,0.50192,16.351,0.090806,0.090806,0,0,0
684,0.51092,16.407,0.092864,0.092864,0,0,0
688,0.52365,16.464,0.095055,0.095055,0,0,0
692,0.53386,16.518,0.098026,0.098026,0,0,0
696,0.5455,16.57,0.10031,0.10031,0,0,0
700,0.55391,16.622,0.10272,0.10272,0,0,0
704,0.56637,16.67,0.1052,0.1052,0,0,0
708,0.5764,16.719,0.10783,0.10783,0,0,0
712,0.58834,16.765,0.11006,0.11006,0,0,0
716,0.59799,16.809,0.11265,0.11265,0,0,0
720,0.60907,16.856,0.11547,0.11547,0,0,0
724,0.61872,16.906,0.11775,0.11775,0,0,0
728,0.63111,16.96,0.12075,0.12075,0,0,0
732,0.64298,17.009,0.12405,0.12405,0,0,0
736,0.6565,17.057,0.12713,0.12713,0,0,0
740,0.66819,17.108,0.13037,0.13037,0,0,0
744,0.6819,17.154,0.1337,0.1337,0,0,0
748,0.69418,17.201,0.13725,0.13725,0,0,0
752,0.70898,17.245,0.14016,0.14016,0,0,0
756,0.72281,17.289,0.14428,0.14428,0,0,0
760,0.73677,17.333,0.14808,0.14808,0,0,0
764,0.7506,17.374,0.15196,0.15196,0,0,0
768,0.76476,17.416,0.15635,0.15635,0,0,0
772,0.7799,17.457,0.16081,0.16081,0,0,0
776,0.79414,17.499,0.16509,0.16509,0,0,0
780,0.80992,17.534,0.1693,0.1693,0,0,0
784,0.82413,17.571,0.1738,0.1738,0,0,0
788,0.84051,17.601,0.17891,0.17891,0,0,0
792,0.85758,17.616,0.18496,0.18496,0,0,0
796,0.87838,17.601,0.19154,0.19154,0,0,0
800,0.90788,17.497,0.20303,0.20303,0,0,0