File: polyN_optimization/DP780_results/DATA/NT20_90_2.csv
Time[s],Displacement[mm],Force[kN],AxStrain_1,AxStrain_2,Thickness[mm],OuterWidth[mm],InnerWidth[mm]
0,0,-0.031457,0,0,1.4938,19.97,10.044
3,0.000728,0.15442,-5.7002e-05,0,0,0,0
6,0.001337,0.2875,-4.5001e-05,0,0,0,0
9,0.001946,0.41487,-5.7002e-05,0,0,0,0
12,0.002552,0.53802,-3e-05,0,0,0,0
15,0.002089,0.6575,6.7998e-05,0,0,0,0
18,0.00262,0.77143,-9.1004e-05,0,0,0,0
21,0.003553,0.88583,-0.00015201,0,0,0,0
24,0.004208,0.99852,-0.00012501,0,0,0,0
27,0.004293,1.1034,-0.00014501,0,0,0,0
30,0.004702,1.2108,-0.00027004,0,0,0,0
33,0.005808,1.3113,-0.00019602,0,0,0,0
36,0.006639,1.4118,-0.00036507,0,0,0,0
39,0.00617,1.5093,-0.00035506,0,0,0,0
42,0.007127,1.6102,-0.00016201,0,0,0,0
45,0.00855,1.703,0.00018298,0,0,0,0
48,0.008036,1.7972,0.00013499,0,0,0,0
51,0.008584,1.8905,-0.00017201,0,0,0,0
54,0.010021,1.983,-6.1002e-05,0,0,0,0
57,0.010654,2.0738,9.7995e-05,0,0,0,0
60,0.009894,2.1625,0.00010499,0,0,0,0
63,0.01051,2.2521,8.4996e-05,0,0,0,0
66,0.012305,2.3428,4.3999e-05,0,0,0,0
69,0.012174,2.4292,0.00037193,0,0,0,0
72,0.012023,2.519,0.00030395,0,0,0,0
75,0.013197,2.6054,0.00049088,0,0,0,0
78,0.014692,2.6881,0.00023997,0,0,0,0
81,0.014332,2.7742,0.00052386,0,0,0,0
84,0.014059,2.8584,0.00035894,0,0,0,0
87,0.015561,2.9415,0.00046989,0,0,0,0
90,0.016827,3.0234,0.00056484,0,0,0,0
93,0.01669,3.1078,0.00040592,0,0,0,0
96,0.016368,3.1906,0.00051387,0,0,0,0
99,0.01717,3.272,0.00035194,0,0,0,0
102,0.019308,3.3564,0.00058483,0,0,0,0
105,0.01842,3.4389,0.00051787,0,0,0,0
108,0.01922,3.5211,0.00024397,0,0,0,0
111,0.020478,3.5988,0.00057483,0,0,0,0
114,0.021843,3.6803,0.00047389,0,0,0,0
117,0.022365,3.7578,0.00047389,0,0,0,0
120,0.021731,3.8419,0.00047389,0,0,0,0
123,0.022747,3.9187,0.00037293,0,0,0,0
126,0.024237,3.9994,0.00091258,0,0,0,0
129,0.024273,4.0754,0.00060881,0,0,0,0
132,0.024378,4.1546,0.00081167,0,0,0,0
135,0.025462,4.2286,0.00074572,0,0,0,0
138,0.026478,4.3072,0.00098152,0,0,0,0
141,0.026717,4.3854,0.0010834,0,0,0,0
144,0.027025,4.4608,0.00091458,0,0,0,0
147,0.027703,4.5388,0.00091358,0,0,0,0
150,0.029193,4.6131,0.00091458,0,0,0,0
153,0.029634,4.6882,0.0010155,0,0,0,0
156,0.030143,4.7656,0.00098052,0,0,0,0
159,0.030923,4.8382,0.00091358,0,0,0,0
162,0.031634,4.9155,0.0011833,0,0,0,0
165,0.03265,4.991,0.0011503,0,0,0,0
168,0.033734,5.0617,0.0013191,0,0,0,0
171,0.034446,5.1355,0.0011503,0,0,0,0
174,0.035429,5.2093,0.0011513,0,0,0,0
177,0.035938,5.2842,0.0012862,0,0,0,0
180,0.037259,5.3571,0.001387,0,0,0,0
183,0.03841,5.4297,0.0011174,0,0,0,0
186,0.039528,5.5031,0.0012522,0,0,0,0
189,0.039462,5.5725,0.0012183,0,0,0,0
192,0.04014,5.6413,0.0012512,0,0,0,0
195,0.041494,5.7078,0.0011164,0,0,0,0
198,0.043186,5.7771,0.0012522,0,0,0,0
201,0.044271,5.8427,0.0012862,0,0,0,0
204,0.044138,5.9111,0.0016576,0,0,0,0
207,0.044985,5.9775,0.0019281,0,0,0,0
210,0.047115,6.0427,0.0017934,0,0,0,0
213,0.048975,6.1079,0.0017924,0,0,0,0
216,0.049414,6.1721,0.0017924,0,0,0,0
219,0.049584,6.2338,0.002467,0,0,0,0
222,0.050769,6.2983,0.0023662,0,0,0,0
225,0.052766,6.3607,0.0020968,0,0,0,0
228,0.053986,6.4239,0.0020639,0,0,0,0
231,0.054936,6.4833,0.0021986,0,0,0,0
234,0.05531,6.5455,0.0026026,0,0,0,0
237,0.056899,6.6069,0.0025348,0,0,0,0
240,0.058894,6.6679,0.0026355,0,0,0,0
243,0.060481,6.7342,0.0022984,0,0,0,0
246,0.06136,6.7944,0.002468,0,0,0,0
249,0.062986,6.855,0.0029746,0,0,0,0
252,0.06424,6.9177,0.002839,0,0,0,0
255,0.065867,6.9765,0.0027033,0,0,0,0
258,0.066917,7.0399,0.0026355,0,0,0,0
261,0.068676,7.1007,0.0031421,0,0,0,0
264,0.070738,7.163,0.0036473,0,0,0,0
267,0.072563,7.2292,0.0038157,0,0,0,0
270,0.073645,7.2896,0.0035138,0,0,0,0
273,0.075439,7.3534,0.0035477,0,0,0,0
276,0.077438,7.4156,0.0039522,0,0,0,0
279,0.080179,7.4771,0.0044889,0,0,0,0
282,0.08194,7.5389,0.0041852,0,0,0,0
285,0.082684,7.6041,0.0040518,0,0,0,0
288,0.084916,7.6688,0.0041882,0,0,0,0
291,0.088702,7.7314,0.0047935,0,0,0,0
294,0.090867,7.7968,0.0051288,0,0,0,0
297,0.092864,7.8612,0.0048243,0,0,0,0
300,0.094693,7.9258,0.004691,0,0,0,0
303,0.097772,7.9916,0.0049278,0,0,0,0
306,0.10024,8.0567,0.0057345,0,0,0,0
309,0.10308,8.1169,0.0059691,0,0,0,0
312,0.10589,8.1831,0.005466,0,0,0,0
315,0.10951,8.2489,0.0060029,0,0,0,0
318,0.11161,8.3107,0.0068078,0,0,0,0
321,0.11492,8.3763,0.0070094,0,0,0,0
324,0.11955,8.4402,0.0066747,0,0,0,0
327,0.12327,8.505,0.0068098,0,0,0,0
330,0.12608,8.5669,0.007984,0,0,0,0
333,0.12973,8.6319,0.0084869,0,0,0,0
336,0.13399,8.695,0.0079503,0,0,0,0
339,0.13798,8.7596,0.0079493,0,0,0,0
342,0.14255,8.8165,0.0086535,0,0,0,0
345,0.14732,8.8803,0.0094225,0,0,0,0
348,0.15121,8.9433,0.0091213,0,0,0,0
351,0.1554,9.0053,0.0092243,0,0,0,0
354,0.16104,9.0632,0.010229,0,0,0,0
357,0.16584,9.1292,0.010997,0,0,0,0
360,0.17081,9.1874,0.010563,0,0,0,0
363,0.17626,9.2508,0.010663,0,0,0,0
366,0.18058,9.313,0.012066,0,0,0,0
369,0.18603,9.373,0.012598,0,0,0,0
372,0.19269,9.431,0.012099,0,0,0,0
375,0.19861,9.4934,0.012632,0,0,0,0
378,0.20442,9.5489,0.013866,0,0,0,0
381,0.21108,9.6084,0.014333,0,0,0,0
384,0.21622,9.6672,0.014267,0,0,0,0
387,0.22251,9.7253,0.0149,0,0,0,0
390,0.23025,9.7791,0.016232,0,0,0,0
393,0.23647,9.836,0.016399,0,0,0,0
396,0.24374,9.8918,0.016132,0,0,0,0
399,0.25026,9.9498,0.017129,0,0,0,0
402,0.25628,10.003,0.018391,0,0,0,0
405,0.26422,10.057,0.01829,0,0,0,0
408,0.27128,10.112,0.01819,0,0,0,0
411,0.27909,10.164,0.019715,0,0,0,0
414,0.28748,10.216,0.02061,0,0,0,0
417,0.29458,10.268,0.02061,0,0,0,0
420,0.30201,10.322,0.021173,0,0,0,0
423,0.30965,10.374,0.022595,0,0,0,0
426,0.31844,10.424,0.023124,0,0,0,0
429,0.32737,10.473,0.023487,0,0,0,0
432,0.33531,10.521,0.024511,0,0,0,0
435,0.34437,10.572,0.025697,0,0,0,0
438,0.35255,10.62,0.026093,0,0,0,0
441,0.36111,10.671,0.026882,0,0,0,0
444,0.37064,10.717,0.027706,0,0,0,0
447,0.37966,10.762,0.028625,0,0,0,0
450,0.39004,10.807,0.02915,0,0,0,0
453,0.39923,10.855,0.02997,0,0,0,0
456,0.40887,10.902,0.031118,0,0,0,0
459,0.41833,10.944,0.031773,0,0,0,0
462,0.42701,10.984,0.032656,0,0,0,0
465,0.43814,11.032,0.033571,0,0,0,0
468,0.44729,11.073,0.034812,0,0,0,0
471,0.45852,11.116,0.035203,0,0,0,0
474,0.46896,11.159,0.036117,0,0,0,0
477,0.47964,11.199,0.037159,0,0,0,0
480,0.49025,11.24,0.037973,0,0,0,0
483,0.50056,11.279,0.03898,0,0,0,0
486,0.51185,11.318,0.039891,0,0,0,0
489,0.52216,11.357,0.041189,0,0,0,0
492,0.53426,11.394,0.041837,0,0,0,0
495,0.54497,11.432,0.043004,0,0,0,0
498,0.55741,11.468,0.044234,0,0,0,0
501,0.56826,11.503,0.044589,0,0,0,0
504,0.57962,11.539,0.045333,0,0,0,0
507,0.59148,11.574,0.047139,0,0,0,0
510,0.60301,11.609,0.048589,0,0,0,0
513,0.61531,11.644,0.048976,0,0,0,0
516,0.62714,11.678,0.050488,0,0,0,0
519,0.64009,11.71,0.052157,0,0,0,0
522,0.65239,11.743,0.053023,0,0,0,0
525,0.66591,11.773,0.054112,0,0,0,0
528,0.67788,11.811,0.055712,0,0,0,0
531,0.69156,11.834,0.057149,0,0,0,0
534,0.70339,11.863,0.058266,0,0,0,0
537,0.71654,11.893,0.059509,0,0,0,0
540,0.72884,11.921,0.061418,0,0,0,0
543,0.74267,11.95,0.062688,0,0,0,0
546,0.75548,11.975,0.063672,0,0,0,0
549,0.76951,12.001,0.065036,0,0,0,0
552,0.78276,12.032,0.067029,0,0,0,0
555,0.79753,12.057,0.068418,0,0,0,0
558,0.81128,12.082,0.069838,0,0,0,0
561,0.82622,12.105,0.071507,0,0,0,0
564,0.83964,12.132,0.073173,0,0,0,0
567,0.85488,12.152,0.074586,0,0,0,0
570,0.86874,12.174,0.07631,0,0,0,0
573,0.88324,12.196,0.078125,0,0,0,0
576,0.89716,12.219,0.079936,0,0,0,0
579,0.9122,12.24,0.081308,0,0,0,0
582,0.92677,12.261,0.083394,0,0,0,0
585,0.94215,12.28,0.085289,0,0,0,0
588,0.95661,12.302,0.086902,0,0,0,0
591,0.97246,12.32,0.089131,0,0,0,0
594,0.98733,12.336,0.091108,0,0,0,0
597,1.0039,12.356,0.092957,0,0,0,0
600,1.0186,12.373,0.094896,0,0,0,0
603,1.0358,12.386,0.097168,0,0,0,0
606,1.0507,12.401,0.099374,0,0,0,0
609,1.0675,12.418,0.10142,0,0,0,0
612,1.0829,12.43,0.10395,0,0,0,0
615,1.0995,12.443,0.10669,0,0,0,0
618,1.1155,12.452,0.10882,0,0,0,0
621,1.1321,12.467,0.11154,0,0,0,0
624,1.1485,12.481,0.11408,0,0,0,0
627,1.165,12.491,0.11661,0,0,0,0
630,1.1821,12.503,0.11928,0,0,0,0
633,1.1985,12.514,0.12219,0,0,0,0
636,1.2167,12.522,0.12464,0,0,0,0
639,1.2328,12.53,0.12774,0,0,0,0
642,1.251,12.539,0.13079,0,0,0,0
645,1.2673,12.546,0.13355,0,0,0,0
648,1.286,12.55,0.13653,0,0,0,0
651,1.3031,12.557,0.14021,0,0,0,0
654,1.321,12.561,0.1435,0,0,0,0
657,1.3392,12.564,0.14686,0,0,0,0
660,1.3575,12.57,0.15068,0,0,0,0
663,1.3755,12.573,0.15442,0,0,0,0
666,1.3938,12.572,0.15852,0,0,0,0
669,1.4129,12.572,0.16229,0,0,0,0
672,1.43,12.572,0.16654,0,0,0,0
675,1.45,12.57,0.17048,0,0,0,0
678,1.4687,12.571,0.17466,0,0,0,0
681,1.4875,12.567,0.17857,0,0,0,0
684,1.5067,12.564,0.18303,0,0,0,0
687,1.5255,12.56,0.18772,0,0,0,0
690,1.5461,12.551,0.19253,0,0,0,0
693,1.5654,12.548,0.19768,0,0,0,0
696,1.585,12.541,0.20247,0,0,0,0
699,1.6051,12.529,0.20795,0,0,0,0
702,1.6247,12.518,0.21416,0,0,0,0
705,1.6454,12.505,0.22029,0,0,0,0
708,1.665,12.494,0.22683,0,0,0,0
711,1.6861,12.48,0.23291,0,0,0,0
714,1.707,12.463,0.23934,0,0,0,0
717,1.727,12.445,0.24619,0,0,0,0
720,1.7487,12.424,0.25259,0,0,0,0
723,1.7685,12.405,0.26024,0,0,0,0
726,1.7894,12.385,0.26779,0,0,0,0
729,1.8115,12.359,0.27566,0,0,0,0
732,1.8321,12.331,0.28388,0,0,0,0
735,1.8543,12.305,0.29149,0,0,0,0
738,1.8755,12.274,0.30046,0,0,0,0
741,1.8975,12.24,0.30934,0,0,0,0
744,1.92,12.204,0.31845,0,0,0,0
747,1.9416,12.163,0.32813,0,0,0,0
750,1.9648,12.118,0.33812,0,0,0,0
753,1.9877,12.07,0.34969,0,0,0,0
756,2.0104,12.014,0.36032,0,0,0,0
759,2.0343,11.955,0.37096,0,0,0,0
762,2.0578,11.891,0.38342,0,0,0,0
765,2.0821,11.818,0.39537,0,0,0,0