File: polyN_optimization/DP780_results/DATA/NT20_90_1.csv
Time[s],Displacement[mm],Force[kN],AxStrain_1,AxStrain_2,Thickness[mm],OuterWidth[mm],InnerWidth[mm]
0,0,-0.041208,0,0,1.4925,19.967,10.092
3,-0.000207,0.13017,-0.00020902,0,0,0,0
6,0.000954,0.26676,-4.0001e-05,0,0,0,0
9,0.001155,0.39573,9.9995e-05,0,0,0,0
12,0.001808,0.51624,4.0999e-05,0,0,0,0
15,0.001998,0.63474,-8.4004e-05,0,0,0,0
18,0.002788,0.75354,5.0999e-05,0,0,0,0
21,0.003019,0.86749,6.0998e-05,0,0,0,0
24,0.003883,0.98233,-0.00024003,0,0,0,0
27,0.004284,1.0918,-0.00010101,0,0,0,0
30,0.004516,1.199,0.00010099,0,0,0,0
33,0.005628,1.3,7.7997e-05,0,0,0,0
36,0.005511,1.404,0,0,0,0,0
39,0.005601,1.5033,7.0997e-05,0,0,0,0
42,0.006576,1.6046,0.00012499,0,0,0,0
45,0.007557,1.7029,-0.00018902,0,0,0,0
48,0.007387,1.7966,-0.00018202,0,0,0,0
51,0.007935,1.8936,5.3999e-05,0,0,0,0
54,0.009416,1.9852,0.00036193,0,0,0,0
57,0.009528,2.0744,0.00024697,0,0,0,0
60,0.009279,2.1765,0.00019598,0,0,0,0
63,0.010129,2.2611,7e-06,0,0,0,0
66,0.011918,2.3525,0.00037893,0,0,0,0
69,0.011612,2.4412,0.00018298,0,0,0,0
72,0.011872,2.5306,0.00027096,0,0,0,0
75,0.012985,2.6255,0.00042291,0,0,0,0
78,0.014234,2.7089,0.00030795,0,0,0,0
81,0.013027,2.7943,0.00033594,0,0,0,0
84,0.013797,2.8779,0.00055185,0,0,0,0
87,0.015326,2.9676,0.00057983,0,0,0,0
90,0.015912,3.0505,0.00070175,0,0,0,0
93,0.015128,3.1365,0.00030595,0,0,0,0
96,0.016427,3.2237,0.00067777,0,0,0,0
99,0.018073,3.3114,0.00053286,0,0,0,0
102,0.01749,3.3955,0.0004449,0,0,0,0
105,0.017661,3.4822,0.00065778,0,0,0,0
108,0.019466,3.569,0.00085763,0,0,0,0
111,0.020575,3.6548,0.00088061,0,0,0,0
114,0.01977,3.7391,0.00050887,0,0,0,0
117,0.020531,3.8216,0.00064479,0,0,0,0
120,0.022173,3.9064,0.0007797,0,0,0,0
123,0.022631,3.9908,0.00081367,0,0,0,0
126,0.022416,4.0737,0.00074572,0,0,0,0
129,0.023484,4.1566,0.00088161,0,0,0,0
132,0.02499,4.238,0.0010834,0,0,0,0
135,0.025317,4.3182,0.00094955,0,0,0,0
138,0.025338,4.4019,0.0010504,0,0,0,0
141,0.026642,4.4854,0.00098352,0,0,0,0
144,0.027676,4.5696,0.0010175,0,0,0,0
147,0.027938,4.6489,0.0012542,0,0,0,0
150,0.028495,4.7303,0.0012562,0,0,0,0
153,0.029834,4.8105,0.0011533,0,0,0,0
156,0.03077,4.8937,0.0018643,0,0,0,0
159,0.030194,4.9744,0.0012552,0,0,0,0
162,0.032206,5.0523,0.0013561,0,0,0,0
165,0.032941,5.1356,0.0014579,0,0,0,0
168,0.034013,5.2182,0.0016596,0,0,0,0
171,0.034883,5.2989,0.001424,0,0,0,0
174,0.035683,5.3794,0.001424,0,0,0,0
177,0.036415,5.4607,0.0016267,0,0,0,0
180,0.03742,5.5417,0.0017634,0,0,0,0
183,0.038524,5.6226,0.0014949,0,0,0,0
186,0.039869,5.7013,0.0020339,0,0,0,0
189,0.040402,5.781,0.0018653,0,0,0,0
192,0.041206,5.8588,0.0021347,0,0,0,0
195,0.043363,5.9376,0.002,0,0,0,0
198,0.044672,6.0148,0.0017964,0,0,0,0
201,0.045611,6.0913,0.0022355,0,0,0,0
204,0.046481,6.1701,0.002439,0,0,0,0
207,0.048436,6.2469,0.0021048,0,0,0,0
210,0.049916,6.3231,0.0024071,0,0,0,0
213,0.050316,6.4021,0.0026754,0,0,0,0
216,0.050988,6.4751,0.0025747,0,0,0,0
219,0.053515,6.5493,0.0023722,0,0,0,0
222,0.054894,6.624,0.0025737,0,0,0,0
225,0.055732,6.7005,0.0031141,0,0,0,0
228,0.056907,6.7726,0.002813,0,0,0,0
231,0.059639,6.8489,0.0029147,0,0,0,0
234,0.061394,6.9204,0.0029118,0,0,0,0
237,0.062574,6.9931,0.0037549,0,0,0,0
240,0.06426,7.0657,0.0039223,0,0,0,0
243,0.06581,7.1385,0.0030822,0,0,0,0
246,0.067796,7.2074,0.0034869,0,0,0,0
249,0.069617,7.2816,0.0038924,0,0,0,0
252,0.072652,7.3495,0.0043963,0,0,0,0
255,0.073495,7.4212,0.0038566,0,0,0,0
258,0.075082,7.4912,0.0039233,0,0,0,0
261,0.078255,7.5583,0.004462,0,0,0,0
264,0.080854,7.6247,0.0047666,0,0,0,0
267,0.082842,7.6953,0.0043326,0,0,0,0
270,0.083346,7.761,0.0042609,0,0,0,0
273,0.086519,7.8276,0.0048651,0,0,0,0
276,0.089692,7.8963,0.0057057,0,0,0,0
279,0.091819,7.9579,0.0052024,0,0,0,0
282,0.093877,8.0262,0.004902,0,0,0,0
285,0.097219,8.093,0.0055764,0,0,0,0
288,0.099581,8.1611,0.006315,0,0,0,0
291,0.10299,8.2248,0.0064144,0,0,0,0
294,0.10613,8.2912,0.0059433,0,0,0,0
297,0.109,8.3504,0.006311,0,0,0,0
300,0.11126,8.4202,0.0069826,0,0,0,0
303,0.11451,8.4828,0.0073201,0,0,0,0
306,0.119,8.5442,0.0068515,0,0,0,0
309,0.12254,8.6076,0.0071534,0,0,0,0
312,0.12565,8.6717,0.0080922,0,0,0,0
315,0.12973,8.733,0.0081239,0,0,0,0
318,0.13352,8.7947,0.0077221,0,0,0,0
321,0.13703,8.8568,0.0080575,0,0,0,0
324,0.1421,8.9178,0.0090271,0,0,0,0
327,0.14683,8.9776,0.0095661,0,0,0,0
330,0.14956,9.0366,0.008931,0,0,0,0
333,0.15432,9.0977,0.0093006,0,0,0,0
336,0.15932,9.1564,0.010339,0,0,0,0
339,0.16375,9.2166,0.010642,0,0,0,0
342,0.16892,9.2747,0.010073,0,0,0,0
345,0.17371,9.3331,0.010572,0,0,0,0
348,0.1779,9.3916,0.011909,0,0,0,0
351,0.18341,9.4507,0.011909,0,0,0,0
354,0.18939,9.504,0.011473,0,0,0,0
357,0.1949,9.5645,0.012274,0,0,0,0
360,0.20057,9.6199,0.013442,0,0,0,0
363,0.20591,9.6778,0.013443,0,0,0,0
366,0.21118,9.7346,0.013244,0,0,0,0
369,0.21838,9.7892,0.014212,0,0,0,0
372,0.22487,9.8472,0.015078,0,0,0,0
375,0.23038,9.9021,0.015246,0,0,0,0
378,0.2375,9.9567,0.015414,0,0,0,0
381,0.24365,10.01,0.016377,0,0,0,0
384,0.24994,10.064,0.017242,0,0,0,0
387,0.25802,10.118,0.017009,0,0,0,0
390,0.26454,10.171,0.017673,0,0,0,0
393,0.2716,10.224,0.018933,0,0,0,0
396,0.27876,10.272,0.019199,0,0,0,0
399,0.28485,10.327,0.01913,0,0,0,0
402,0.29357,10.378,0.020157,0,0,0,0
405,0.30151,10.428,0.021116,0,0,0,0
408,0.30904,10.479,0.02125,0,0,0,0
411,0.3177,10.526,0.02191,0,0,0,0
414,0.32456,10.576,0.023,0,0,0,0
417,0.33328,10.626,0.023727,0,0,0,0
420,0.34125,10.675,0.023959,0,0,0,0
423,0.34957,10.719,0.024817,0,0,0,0
426,0.35927,10.766,0.025708,0,0,0,0
429,0.36745,10.813,0.026301,0,0,0,0
432,0.37715,10.861,0.027059,0,0,0,0
435,0.38519,10.907,0.028178,0,0,0,0
438,0.39408,10.953,0.028637,0,0,0,0
441,0.40439,10.996,0.029359,0,0,0,0
444,0.41378,11.041,0.030376,0,0,0,0
447,0.42416,11.086,0.031063,0,0,0,0
450,0.43393,11.129,0.031555,0,0,0,0
453,0.44376,11.172,0.032601,0,0,0,0
456,0.45343,11.214,0.033484,0,0,0,0
459,0.46424,11.258,0.034202,0,0,0,0
462,0.47435,11.297,0.035116,0,0,0,0
465,0.48442,11.336,0.036354,0,0,0,0
468,0.49561,11.377,0.037234,0,0,0,0
471,0.50585,11.417,0.037981,0,0,0,0
474,0.51744,11.456,0.038989,0,0,0,0
477,0.52768,11.493,0.040192,0,0,0,0
480,0.53918,11.53,0.04136,0,0,0,0
483,0.55009,11.567,0.042138,0,0,0,0
486,0.56193,11.604,0.043107,0,0,0,0
489,0.57362,11.64,0.044047,0,0,0,0
492,0.58582,11.678,0.045242,0,0,0,0
495,0.59786,11.71,0.046468,0,0,0,0
498,0.60996,11.744,0.047565,0,0,0,0
501,0.62206,11.775,0.04821,0,0,0,0
504,0.63358,11.811,0.049916,0,0,0,0
507,0.64636,11.842,0.050912,0,0,0,0
510,0.65799,11.875,0.052002,0,0,0,0
513,0.67165,11.905,0.053542,0,0,0,0
516,0.68381,11.934,0.05463,0,0,0,0
519,0.69794,11.964,0.055685,0,0,0,0
522,0.71031,11.997,0.057059,0,0,0,0
525,0.72444,12.024,0.058304,0,0,0,0
528,0.73688,12.056,0.059706,0,0,0,0
531,0.75094,12.081,0.061105,0,0,0,0
534,0.76342,12.11,0.062218,0,0,0,0
537,0.77765,12.135,0.063612,0,0,0,0
540,0.79059,12.166,0.065167,0,0,0,0
543,0.80516,12.187,0.066243,0,0,0,0
546,0.81888,12.209,0.067506,0,0,0,0
549,0.83322,12.234,0.069307,0,0,0,0
552,0.84768,12.26,0.070787,0,0,0,0
555,0.86327,12.285,0.072109,0,0,0,0
558,0.87672,12.308,0.074182,0,0,0,0
561,0.89237,12.327,0.076064,0,0,0,0
564,0.90626,12.348,0.077535,0,0,0,0
567,0.92205,12.37,0.079284,0,0,0,0
570,0.93638,12.389,0.081156,0,0,0,0
573,0.95213,12.407,0.08318,0,0,0,0
576,0.9667,12.428,0.085074,0,0,0,0
579,0.98276,12.444,0.087152,0,0,0,0
582,0.99753,12.46,0.089256,0,0,0,0
585,1.0143,12.477,0.091448,0,0,0,0
588,1.0299,12.494,0.093974,0,0,0,0
591,1.0459,12.51,0.096064,0,0,0,0
594,1.0626,12.53,0.09818,0,0,0,0
597,1.0782,12.542,0.10066,0,0,0,0
600,1.0956,12.553,0.10328,0,0,0,0
603,1.1116,12.566,0.10526,0,0,0,0
606,1.1286,12.577,0.10794,0,0,0,0
609,1.145,12.59,0.11033,0,0,0,0
612,1.1621,12.6,0.11305,0,0,0,0
615,1.1781,12.61,0.1154,0,0,0,0
618,1.1957,12.622,0.1179,0,0,0,0
621,1.2125,12.629,0.12093,0,0,0,0
624,1.2301,12.638,0.12371,0,0,0,0
627,1.2479,12.646,0.1269,0,0,0,0
630,1.2651,12.652,0.12973,0,0,0,0
633,1.2829,12.659,0.13269,0,0,0,0
636,1.3003,12.663,0.13606,0,0,0,0
639,1.3192,12.669,0.1393,0,0,0,0
642,1.3367,12.672,0.143,0,0,0,0
645,1.3557,12.674,0.14645,0,0,0,0
648,1.3735,12.679,0.14977,0,0,0,0
651,1.3921,12.679,0.15361,0,0,0,0
654,1.4108,12.679,0.15737,0,0,0,0
657,1.4293,12.677,0.16178,0,0,0,0
660,1.4487,12.677,0.16597,0,0,0,0
663,1.4669,12.674,0.17011,0,0,0,0
666,1.4869,12.672,0.17463,0,0,0,0
669,1.5059,12.667,0.17902,0,0,0,0
672,1.5257,12.659,0.1841,0,0,0,0
675,1.5452,12.653,0.18887,0,0,0,0
678,1.5643,12.648,0.19392,0,0,0,0
681,1.5848,12.641,0.19864,0,0,0,0
684,1.6045,12.631,0.20428,0,0,0,0
687,1.6248,12.618,0.21027,0,0,0,0
690,1.6452,12.604,0.21652,0,0,0,0
693,1.6651,12.588,0.22287,0,0,0,0
696,1.6863,12.571,0.22953,0,0,0,0
699,1.7068,12.557,0.23599,0,0,0,0
702,1.7275,12.538,0.24293,0,0,0,0
705,1.749,12.516,0.24965,0,0,0,0
708,1.7696,12.49,0.25724,0,0,0,0
711,1.7914,12.466,0.26508,0,0,0,0
714,1.8121,12.439,0.27278,0,0,0,0
717,1.8339,12.412,0.28112,0,0,0,0
720,1.856,12.382,0.28929,0,0,0,0
723,1.8776,12.345,0.29779,0,0,0,0
726,1.8994,12.307,0.30717,0,0,0,0
729,1.9217,12.268,0.31637,0,0,0,0
732,1.9441,12.224,0.32551,0,0,0,0
735,1.9675,12.176,0.3365,0,0,0,0
738,1.9909,12.122,0.34644,0,0,0,0
741,2.0136,12.062,0.35726,0,0,0,0
744,2.0382,11.994,0.36908,0,0,0,0
747,2.0626,11.917,0.38098,0,0,0,0
748.5,2.0758,11.868,0.38826,0,0,0,0