File: polyN_optimization/DP780_results/DATA/NT6_90_3.csv
Time[s],Displacement[mm],Force[kN],AxStrain_1,AxStrain_2,Thickness[mm],OuterWidth[mm],InnerWidth[mm]
0,0,-0.047864,0,0,1.5007,19.95,10.075
3,0.001154,0.13527,-0.00025803,0,0,0,0
6,0.001591,0.27541,-0.00012501,0,0,0,0
9,0.001887,0.40758,0.00016099,0,0,0,0
12,0.002754,0.52856,3.8999e-05,0,0,0,0
15,0.00339,0.64819,6.0998e-05,0,0,0,0
18,0.003597,0.76767,4.3999e-05,0,0,0,0
21,0.00377,0.89207,7e-06,0,0,0,0
24,0.00449,1.0116,9.0996e-05,0,0,0,0
27,0.006184,1.1295,8.4996e-05,0,0,0,0
30,0.006155,1.2429,-5.4001e-05,0,0,0,0
33,0.00625,1.3536,-0.00017201,0,0,0,0
36,0.007089,1.4567,0.00023697,0,0,0,0
39,0.008432,1.5593,0.00040892,0,0,0,0
42,0.007849,1.6595,0.00022697,0,0,0,0
45,0.00803,1.7575,0.00026696,0,0,0,0
48,0.00949,1.8543,0.00040892,0,0,0,0
51,0.010466,1.9479,0.00041591,0,0,0,0
54,0.009603,2.0425,0.00021298,0,0,0,0
57,0.010164,2.1369,0.00019598,0,0,0,0
60,0.011722,2.2289,0.00033494,0,0,0,0
63,0.012045,2.3221,0.00047988,0,0,0,0
66,0.011296,2.4115,0.00045989,0,0,0,0
69,0.012552,2.501,0.00070075,0,0,0,0
72,0.014419,2.5882,0.00061281,0,0,0,0
75,0.013737,2.6749,0.00043091,0,0,0,0
78,0.0133,2.7641,0.00019098,0,0,0,0
81,0.015027,2.8495,0.00056684,0,0,0,0
84,0.016793,2.9378,0.00042091,0,0,0,0
87,0.015551,3.0219,0.00041791,0,0,0,0
90,0.01573,3.1076,0.00059982,0,0,0,0
93,0.01752,3.1919,0.00074172,0,0,0,0
96,0.018377,3.2788,0.00076271,0,0,0,0
99,0.017522,3.3652,0.00059182,0,0,0,0
102,0.017585,3.4501,0.00050087,0,0,0,0
105,0.019868,3.5388,0.00062381,0,0,0,0
108,0.0205,3.6209,0.00073873,0,0,0,0
111,0.019313,3.7048,0.00034894,0,0,0,0
114,0.019878,3.7897,0.00051087,0,0,0,0
117,0.02167,3.8753,0.00070975,0,0,0,0
120,0.022384,3.9597,0.00061281,0,0,0,0
123,0.021434,4.0434,0.00057983,0,0,0,0
126,0.02263,4.1243,0.00074972,0,0,0,0
129,0.024095,4.2092,0.00098751,0,0,0,0
132,0.024478,4.2893,0.00071774,0,0,0,0
135,0.023918,4.3727,0.00058383,0,0,0,0
138,0.025153,4.452,0.00058383,0,0,0,0
141,0.026522,4.5389,0.0010884,0,0,0,0
144,0.026607,4.62,0.00081866,0,0,0,0
147,0.026148,4.6988,0.00071674,0,0,0,0
150,0.027281,4.7815,0.0010554,0,0,0,0
153,0.028381,4.8613,0.0012252,0,0,0,0
156,0.028637,4.9421,0.00085663,0,0,0,0
159,0.028627,5.0218,0.00072474,0,0,0,0
162,0.029796,5.102,0.0008946,0,0,0,0
165,0.030626,5.1815,0.0011653,0,0,0,0
168,0.031048,5.2668,0.00096054,0,0,0,0
171,0.031101,5.3461,0.00082366,0,0,0,0
174,0.03234,5.4278,0.0011613,0,0,0,0
177,0.032939,5.5124,0.0011274,0,0,0,0
180,0.033809,5.5917,0.0010944,0,0,0,0
183,0.034539,5.667,0.0010614,0,0,0,0
186,0.035369,5.7508,0.001403,0,0,0,0
189,0.035795,5.8278,0.001405,0,0,0,0
192,0.036729,5.9032,0.0011374,0,0,0,0
195,0.03787,5.9855,0.00093456,0,0,0,0
198,0.038026,6.0627,0.0017045,0,0,0,0
201,0.0387,6.1376,0.001408,0,0,0,0
204,0.040514,6.2199,0.0012702,0,0,0,0
207,0.041515,6.2945,0.001403,0,0,0,0
210,0.041302,6.3749,0.0017055,0,0,0,0
213,0.042312,6.4498,0.0019092,0,0,0,0
216,0.043995,6.5242,0.0015408,0,0,0,0
219,0.046596,6.6017,0.0018114,0,0,0,0
222,0.044636,6.6782,0.0021856,0,0,0,0
225,0.046624,6.7535,0.0018882,0,0,0,0
228,0.049085,6.8278,0.0015877,0,0,0,0
231,0.04935,6.9024,0.0017575,0,0,0,0
234,0.04941,6.9756,0.0023682,0,0,0,0
237,0.051163,7.0487,0.001997,0,0,0,0
240,0.053833,7.1217,0.0019271,0,0,0,0
243,0.054475,7.1951,0.0021617,0,0,0,0
246,0.05488,7.27,0.0025986,0,0,0,0
249,0.05718,7.3429,0.0023273,0,0,0,0
252,0.059575,7.4149,0.0022255,0,0,0,0
255,0.06018,7.4887,0.0026295,0,0,0,0
258,0.060986,7.5605,0.0031341,0,0,0,0
261,0.063686,7.6311,0.0027313,0,0,0,0
264,0.065239,7.7057,0.0028001,0,0,0,0
267,0.066586,7.7763,0.0032378,0,0,0,0
270,0.068687,7.8442,0.003745,0,0,0,0
273,0.070448,7.9148,0.0033793,0,0,0,0
276,0.072203,7.9842,0.0033813,0,0,0,0
279,0.075176,8.0518,0.0042271,0,0,0,0
282,0.077097,8.1192,0.0041295,0,0,0,0
285,0.07831,8.1903,0.003727,0,0,0,0
288,0.08067,8.2596,0.0039651,0,0,0,0
291,0.084383,8.3238,0.0048413,0,0,0,0
294,0.085897,8.3919,0.0047079,0,0,0,0
297,0.087314,8.4592,0.0043734,0,0,0,0
300,0.0913,8.5292,0.0050144,0,0,0,0
303,0.094508,8.593,0.0058856,0,0,0,0
306,0.096331,8.6593,0.0053855,0,0,0,0
309,0.099103,8.724,0.005283,0,0,0,0
312,0.10235,8.7907,0.0062216,0,0,0,0
315,0.10507,8.8566,0.0068932,0,0,0,0
318,0.10929,8.921,0.0061202,0,0,0,0
321,0.11274,8.9835,0.0064531,0,0,0,0
324,0.11445,9.047,0.0079255,0,0,0,0
327,0.11839,9.1125,0.0076884,0,0,0,0
330,0.12328,9.1789,0.0074234,0,0,0,0
333,0.12624,9.2386,0.0082578,0,0,0,0
336,0.12917,9.302,0.0093284,0,0,0,0
339,0.13393,9.3652,0.008592,0,0,0,0
342,0.13743,9.4272,0.0086247,0,0,0,0
345,0.14154,9.4907,0.0099949,0,0,0,0
348,0.14626,9.5534,0.010732,0,0,0,0
351,0.14927,9.6121,0.0099652,0,0,0,0
354,0.15412,9.6735,0.010534,0,0,0,0
357,0.16006,9.7372,0.012008,0,0,0,0
360,0.16393,9.7942,0.011743,0,0,0,0
363,0.16841,9.8556,0.011413,0,0,0,0
366,0.17312,9.9169,0.012781,0,0,0,0
369,0.17753,9.9736,0.013617,0,0,0,0
372,0.18397,10.033,0.012989,0,0,0,0
375,0.18915,10.089,0.013223,0,0,0,0
378,0.19275,10.149,0.01472,0,0,0,0
381,0.19898,10.209,0.014958,0,0,0,0
384,0.20413,10.264,0.014527,0,0,0,0
387,0.20972,10.32,0.015554,0,0,0,0
390,0.21653,10.377,0.016816,0,0,0,0
393,0.22117,10.432,0.016614,0,0,0,0
396,0.22628,10.485,0.016811,0,0,0,0
399,0.2336,10.538,0.018199,0,0,0,0
402,0.23936,10.592,0.018796,0,0,0,0
405,0.24636,10.646,0.018761,0,0,0,0
408,0.25239,10.699,0.019487,0,0,0,0
411,0.2571,10.75,0.020546,0,0,0,0
414,0.26501,10.803,0.020942,0,0,0,0
417,0.27188,10.853,0.021305,0,0,0,0
420,0.27868,10.906,0.022264,0,0,0,0
423,0.28635,10.954,0.02332,0,0,0,0
426,0.29214,11.001,0.023551,0,0,0,0
429,0.29947,11.055,0.024308,0,0,0,0
432,0.30736,11.103,0.025167,0,0,0,0
435,0.31404,11.153,0.025792,0,0,0,0
438,0.3234,11.2,0.026581,0,0,0,0
441,0.33023,11.247,0.027338,0,0,0,0
444,0.33743,11.296,0.028259,0,0,0,0
447,0.34561,11.34,0.02898,0,0,0,0
450,0.35274,11.394,0.0298,0,0,0,0
453,0.36213,11.429,0.03062,0,0,0,0
456,0.37034,11.475,0.031471,0,0,0,0
459,0.37839,11.521,0.032518,0,0,0,0
462,0.38731,11.564,0.0334,0,0,0,0
465,0.39477,11.603,0.034054,0,0,0,0
468,0.40373,11.649,0.034936,0,0,0,0
471,0.41241,11.693,0.036045,0,0,0,0
474,0.42136,11.73,0.036891,0,0,0,0
477,0.43133,11.775,0.038129,0,0,0,0
480,0.43971,11.813,0.039169,0,0,0,0
483,0.45015,11.854,0.039946,0,0,0,0
486,0.45846,11.892,0.040954,0,0,0,0
489,0.46822,11.931,0.042768,0,0,0,0
492,0.47788,11.968,0.043124,0,0,0,0
495,0.48727,12.006,0.044255,0,0,0,0
498,0.49829,12.041,0.045965,0,0,0,0
501,0.50825,12.077,0.047384,0,0,0,0
504,0.51912,12.115,0.047996,0,0,0,0
507,0.52855,12.148,0.049572,0,0,0,0
510,0.53912,12.184,0.051434,0,0,0,0
513,0.55006,12.218,0.052235,0,0,0,0
516,0.5604,12.249,0.053582,0,0,0,0
519,0.57266,12.286,0.055563,0,0,0,0
522,0.58316,12.313,0.056681,0,0,0,0
525,0.59586,12.342,0.058022,0,0,0,0
528,0.60673,12.376,0.059933,0,0,0,0
531,0.61899,12.402,0.061649,0,0,0,0
534,0.62973,12.432,0.063045,0,0,0,0
537,0.64151,12.457,0.065106,0,0,0,0
540,0.65323,12.484,0.066972,0,0,0,0
543,0.66529,12.514,0.068392,0,0,0,0
546,0.67825,12.54,0.070441,0,0,0,0
549,0.68963,12.561,0.072611,0,0,0,0
552,0.70371,12.588,0.074087,0,0,0,0
555,0.71573,12.615,0.076343,0,0,0,0
558,0.72991,12.637,0.078408,0,0,0,0
561,0.7421,12.656,0.080498,0,0,0,0
564,0.75622,12.677,0.08299,0,0,0,0
567,0.76888,12.692,0.08532,0,0,0,0
570,0.78269,12.711,0.087769,0,0,0,0
573,0.79566,12.729,0.090583,0,0,0,0
576,0.80961,12.746,0.093172,0,0,0,0
579,0.82335,12.761,0.095603,0,0,0,0
582,0.83744,12.775,0.098517,0,0,0,0
585,0.85152,12.789,0.10136,0,0,0,0
588,0.8657,12.801,0.10429,0,0,0,0
591,0.88087,12.812,0.10733,0,0,0,0
594,0.89535,12.822,0.11036,0,0,0,0
597,0.91079,12.83,0.1139,0,0,0,0
600,0.92578,12.84,0.1176,0,0,0,0
603,0.94173,12.847,0.12118,0,0,0,0
606,0.95652,12.848,0.12491,0,0,0,0
609,0.97327,12.85,0.12953,0,0,0,0
612,0.9883,12.852,0.13404,0,0,0,0
615,1.0047,12.849,0.13846,0,0,0,0
618,1.0208,12.849,0.14296,0,0,0,0
621,1.0376,12.844,0.14823,0,0,0,0
624,1.0542,12.837,0.15378,0,0,0,0
627,1.0713,12.828,0.15934,0,0,0,0
630,1.0882,12.817,0.16573,0,0,0,0
633,1.1059,12.805,0.17184,0,0,0,0
636,1.1241,12.788,0.1783,0,0,0,0
639,1.1416,12.765,0.1853,0,0,0,0
642,1.1607,12.744,0.19242,0,0,0,0
645,1.1782,12.715,0.19986,0,0,0,0
648,1.1982,12.688,0.20738,0,0,0,0
651,1.2159,12.652,0.21582,0,0,0,0
654,1.2365,12.615,0.22431,0,0,0,0
657,1.2552,12.569,0.23309,0,0,0,0
660,1.2756,12.522,0.24206,0,0,0,0
663,1.2962,12.465,0.25185,0,0,0,0
666,1.3163,12.409,0.26217,0,0,0,0
669,1.3386,12.341,0.27283,0,0,0,0
672,1.359,12.266,0.28367,0,0,0,0
675,1.3824,12.168,0.29554,0,0,0,0
675.5,1.3869,12.124,0.29825,0,0,0,0