File: polyN_optimization/DP780_results/DATA/NT6_00_1.csv
Time[s],Displacement[mm],Force[kN],AxStrain_1,AxStrain_2,Thickness[mm],OuterWidth[mm],InnerWidth[mm]
0,0,-0.041059,0,0,1.4938,19.968,10.04
2.5,0.000339,0.10293,-0.00018902,0,0,0,0
5,0.00045,0.22438,-0.00012901,0,0,0,0
7.5,0.001032,0.33067,-0.00027904,0,0,0,0
10,0.001262,0.43592,-2.9e-05,0,0,0,0
12.5,0.001481,0.53893,-7.8003e-05,0,0,0,0
15,0.001501,0.63772,0.00026696,0,0,0,0
17.5,0.00167,0.73863,-6.8002e-05,0,0,0,0
20,0.002366,0.83375,-2.7e-05,0,0,0,0
22.5,0.003408,0.93061,-0.00010101,0,0,0,0
25,0.00333,1.0262,8.7996e-05,0,0,0,0
27.5,0.003178,1.114,3.3999e-05,0,0,0,0
30,0.003865,1.2048,-0.00033506,0,0,0,0
32.5,0.005109,1.2917,-0.00022002,0,0,0,0
35,0.004623,1.3739,0.00017299,0,0,0,0
37.5,0.004488,1.4553,-9.5005e-05,0,0,0,0
40,0.005354,1.5388,-3.4001e-05,0,0,0,0
42.5,0.006261,1.6221,5.0999e-05,0,0,0,0
45,0.006928,1.7004,0.00012499,0,0,0,0
47.5,0.006469,1.7778,0.00017299,0,0,0,0
50,0.006586,1.8559,-1.7e-05,0,0,0,0
52.5,0.007993,1.9333,0.00028396,0,0,0,0
55,0.00883,2.0097,0.00013899,0,0,0,0
57.5,0.00826,2.0873,0.00028796,0,0,0,0
60,0.008002,2.1596,-3e-05,0,0,0,0
62.5,0.009407,2.2361,-1.3e-05,0,0,0,0
65,0.010545,2.3083,4.0999e-05,0,0,0,0
67.5,0.010483,2.3842,-0.00014101,0,0,0,0
70,0.009471,2.4545,2.8e-05,0,0,0,0
72.5,0.010428,2.5297,-2.6e-05,0,0,0,0
75,0.012133,2.5976,0.00026097,0,0,0,0
77.5,0.012664,2.6706,0.00017698,0,0,0,0
80,0.011978,2.737,0.00025497,0,0,0,0
82.5,0.012204,2.8065,0.00046089,0,0,0,0
85,0.013424,2.8794,0.00030195,0,0,0,0
87.5,0.014536,2.9477,0.00032895,0,0,0,0
90,0.014573,3.0176,0.00049188,0,0,0,0
92.5,0.014019,3.0858,0.00033894,0,0,0,0
95,0.01434,3.1557,5.2999e-05,0,0,0,0
97.5,0.016028,3.2257,0.00033994,0,0,0,0
100,0.016462,3.2943,0.00031595,0,0,0,0
102.5,0.016064,3.363,0.00020498,0,0,0,0
105,0.015872,3.4331,0.00028296,0,0,0,0
107.5,0.017669,3.503,0.00020198,0,0,0,0
110,0.018569,3.5757,0.00040092,0,0,0,0
112.5,0.018132,3.6417,0.00037493,0,0,0,0
115,0.018043,3.7068,0.00020598,0,0,0,0
117.5,0.019064,3.7754,0.00040892,0,0,0,0
120,0.020455,3.8431,0.00040892,0,0,0,0
122.5,0.020765,3.9126,0.00040992,0,0,0,0
125,0.020298,3.9773,0.00040992,0,0,0,0
127.5,0.020237,4.0483,0.00054485,0,0,0,0
130,0.022068,4.1136,0.00051087,0,0,0,0
132.5,0.022953,4.1831,0.00037593,0,0,0,0
135,0.022757,4.2483,0.0004439,0,0,0,0
137.5,0.022494,4.3151,0.00027496,0,0,0,0
140,0.023649,4.3818,0.00047789,0,0,0,0
142.5,0.024703,4.4519,0.00068077,0,0,0,0
145,0.025149,4.5205,0.00051187,0,0,0,0
147.5,0.025021,4.5915,0.00024197,0,0,0,0
150,0.025873,4.6516,0.00037693,0,0,0,0
152.5,0.026928,4.7183,0.00047789,0,0,0,0
155,0.027508,4.7887,0.00061281,0,0,0,0
157.5,0.027921,4.8554,0.00068077,0,0,0,0
160,0.028132,4.9165,0.00071474,0,0,0,0
162.5,0.02831,4.9861,0.00054585,0,0,0,0
165,0.029667,5.0495,0.0010864,0,0,0,0
167.5,0.031095,5.1171,0.00085064,0,0,0,0
170,0.031338,5.1822,0.00074872,0,0,0,0
172.5,0.031279,5.2508,0.00058083,0,0,0,0
175,0.032065,5.3188,0.0010544,0,0,0,0
177.5,0.032885,5.384,0.00078469,0,0,0,0
180,0.033536,5.4547,0.0010215,0,0,0,0
182.5,0.034626,5.522,0.00081866,0,0,0,0
185,0.035276,5.5902,0.0012243,0,0,0,0
187.5,0.035521,5.6506,0.0015288,0,0,0,0
190,0.036814,5.7205,0.0013281,0,0,0,0
192.5,0.037669,5.7864,0.0012942,0,0,0,0
195,0.038116,5.8498,0.0012292,0,0,0,0
197.5,0.038563,5.9161,0.0012962,0,0,0,0
200,0.039923,5.9849,0.0015997,0,0,0,0
202.5,0.04152,6.0492,0.0010614,0,0,0,0
205,0.042001,6.1123,0.0011953,0,0,0,0
207.5,0.042247,6.1801,0.0019381,0,0,0,0
210,0.043777,6.2449,0.0015308,0,0,0,0
212.5,0.045681,6.3093,0.0012602,0,0,0,0
215,0.046165,6.3763,0.001428,0,0,0,0
217.5,0.046141,6.4429,0.0017664,0,0,0,0
220,0.04757,6.5057,0.0016666,0,0,0,0
222.5,0.049609,6.5684,0.0017694,0,0,0,0
225,0.050835,6.6365,0.0018383,0,0,0,0
227.5,0.050707,6.7027,0.0023792,0,0,0,0
230,0.051866,6.768,0.0022455,0,0,0,0
232.5,0.054003,6.8334,0.0023133,0,0,0,0
235,0.055634,6.898,0.0021098,0,0,0,0
237.5,0.056049,6.9629,0.0020758,0,0,0,0
240,0.056736,7.0243,0.0025448,0,0,0,0
242.5,0.059077,7.0892,0.0022415,0,0,0,0
245,0.060673,7.153,0.0024799,0,0,0,0
247.5,0.062135,7.2178,0.0027512,0,0,0,0
250,0.063124,7.2857,0.0031909,0,0,0,0
252.5,0.064516,7.3498,0.0029925,0,0,0,0
255,0.06662,7.4153,0.002824,0,0,0,0
257.5,0.068148,7.4788,0.0030214,0,0,0,0
260,0.070322,7.5435,0.0036942,0,0,0,0
262.5,0.071651,7.6054,0.003457,0,0,0,0
265,0.072707,7.673,0.0031211,0,0,0,0
267.5,0.075087,7.7369,0.0035607,0,0,0,0
270,0.077632,7.8011,0.0040677,0,0,0,0
272.5,0.079533,7.8609,0.0044411,0,0,0,0
275,0.080317,7.9259,0.0041066,0,0,0,0
277.5,0.082351,7.9863,0.004003,0,0,0,0
280,0.085433,8.0483,0.0047746,0,0,0,0
282.5,0.087803,8.1122,0.0053437,0,0,0,0
285,0.089366,8.1737,0.0046701,0,0,0,0
287.5,0.091131,8.2393,0.0047039,0,0,0,0
290,0.09435,8.2993,0.005481,0,0,0,0
292.5,0.097163,8.3617,0.0059523,0,0,0,0
295,0.099703,8.4208,0.0056182,0,0,0,0
297.5,0.10235,8.482,0.0054193,0,0,0,0
300,0.10476,8.5435,0.0058906,0,0,0,0
302.5,0.1072,8.6045,0.0068952,0,0,0,0
305,0.11031,8.6626,0.0067581,0,0,0,0
307.5,0.11414,8.7214,0.0062206,0,0,0,0
310,0.11729,8.7803,0.0067233,0,0,0,0
312.5,0.11942,8.8413,0.0076288,0,0,0,0
315,0.12247,8.8997,0.0079315,0,0,0,0
317.5,0.12664,8.9563,0.0075306,0,0,0,0
320,0.13005,9.0131,0.0078352,0,0,0,0
322.5,0.13354,9.0693,0.008706,0,0,0,0
325,0.1374,9.1293,0.0096483,0,0,0,0
327.5,0.14095,9.1895,0.0093135,0,0,0,0
330,0.1441,9.2445,0.009046,0,0,0,0
332.5,0.1487,9.2988,0.009981,0,0,0,0
335,0.1537,9.357,0.011015,0,0,0,0
337.5,0.15743,9.4139,0.010545,0,0,0,0
340,0.16111,9.4697,0.010479,0,0,0,0
342.5,0.16592,9.5235,0.010845,0,0,0,0
345,0.17001,9.5771,0.011979,0,0,0,0
347.5,0.17437,9.6303,0.012279,0,0,0,0
350,0.17968,9.6845,0.011713,0,0,0,0
352.5,0.18499,9.7379,0.012082,0,0,0,0
355,0.18892,9.7887,0.013416,0,0,0,0
357.5,0.19294,9.8434,0.014117,0,0,0,0
360,0.19859,9.895,0.013818,0,0,0,0
362.5,0.2038,9.9458,0.013788,0,0,0,0
365,0.20924,9.9997,0.014788,0,0,0,0
367.5,0.21533,10.05,0.015622,0,0,0,0
370,0.22057,10.103,0.015919,0,0,0,0
372.5,0.22507,10.153,0.015488,0,0,0,0
375,0.23129,10.205,0.016317,0,0,0,0
377.5,0.23694,10.253,0.017379,0,0,0,0
380,0.24221,10.3,0.01791,0,0,0,0
382.5,0.24904,10.352,0.017911,0,0,0,0
385,0.2552,10.399,0.018242,0,0,0,0
387.5,0.26061,10.446,0.019201,0,0,0,0
390,0.26669,10.489,0.019898,0,0,0,0
392.5,0.27244,10.537,0.019898,0,0,0,0
395,0.27842,10.587,0.020658,0,0,0,0
397.5,0.28569,10.634,0.021287,0,0,0,0
400,0.29255,10.676,0.022277,0,0,0,0
402.5,0.2988,10.72,0.022542,0,0,0,0
405,0.30546,10.764,0.023136,0,0,0,0
407.5,0.31212,10.807,0.023368,0,0,0,0
410,0.31857,10.852,0.024456,0,0,0,0
412.5,0.32577,10.895,0.024952,0,0,0,0
415,0.33341,10.939,0.025809,0,0,0,0
417.5,0.34051,10.977,0.026204,0,0,0,0
420,0.34821,11.019,0.026862,0,0,0,0
422.5,0.35572,11.059,0.027555,0,0,0,0
425,0.36234,11.103,0.028441,0,0,0,0
427.5,0.36991,11.146,0.029065,0,0,0,0
430,0.37744,11.184,0.029525,0,0,0,0
432.5,0.38484,11.225,0.030577,0,0,0,0
435,0.39319,11.263,0.031396,0,0,0,0
437.5,0.40164,11.308,0.032115,0,0,0,0
440,0.40979,11.343,0.032443,0,0,0,0
442.5,0.41871,11.377,0.033881,0,0,0,0
445,0.42648,11.416,0.034565,0,0,0,0
447.5,0.43402,11.45,0.035381,0,0,0,0
450,0.44317,11.487,0.036099,0,0,0,0
452.5,0.45111,11.524,0.036848,0,0,0,0
455,0.46007,11.563,0.037889,0,0,0,0
457.5,0.46926,11.592,0.038768,0,0,0,0
460,0.47792,11.629,0.039611,0,0,0,0
462.5,0.48741,11.662,0.040747,0,0,0,0
465,0.49657,11.694,0.041752,0,0,0,0
467.5,0.50549,11.726,0.042302,0,0,0,0
470,0.51523,11.759,0.04337,0,0,0,0
472.5,0.52368,11.792,0.044469,0,0,0,0
475,0.533,11.823,0.045923,0,0,0,0
477.5,0.54243,11.854,0.0466,0,0,0,0
480,0.55196,11.885,0.04747,0,0,0,0
482.5,0.5621,11.916,0.049047,0,0,0,0
485,0.57227,11.947,0.050301,0,0,0,0
487.5,0.58187,11.971,0.051071,0,0,0,0
490,0.59295,12,0.052292,0,0,0,0
492.5,0.60279,12.03,0.054054,0,0,0,0
495,0.61289,12.054,0.055302,0,0,0,0
497.5,0.62357,12.081,0.056357,0,0,0,0
500,0.63364,12.108,0.057667,0,0,0,0
502.5,0.64445,12.136,0.059038,0,0,0,0
505,0.65449,12.161,0.060501,0,0,0,0
507.5,0.66578,12.183,0.06206,0,0,0,0
510,0.67669,12.208,0.063297,0,0,0,0
512.5,0.68723,12.233,0.064788,0,0,0,0
515,0.6993,12.255,0.066434,0,0,0,0
517.5,0.71008,12.277,0.068202,0,0,0,0
520,0.72194,12.301,0.069748,0,0,0,0
522.5,0.73386,12.322,0.071071,0,0,0,0
525,0.74515,12.341,0.073273,0,0,0,0
527.5,0.75779,12.36,0.075092,0,0,0,0
530,0.76874,12.378,0.076627,0,0,0,0
532.5,0.78121,12.397,0.078316,0,0,0,0
535,0.79277,12.414,0.080095,0,0,0,0
537.5,0.80415,12.434,0.082432,0,0,0,0
540,0.81696,12.447,0.084298,0,0,0,0
542.5,0.82862,12.467,0.086377,0,0,0,0
545,0.8421,12.481,0.088482,0,0,0,0
547.5,0.8542,12.498,0.090275,0,0,0,0
550,0.86761,12.51,0.093174,0,0,0,0
552.5,0.88018,12.523,0.095665,0,0,0,0
555,0.8935,12.537,0.097844,0,0,0,0
557.5,0.90755,12.549,0.10057,0,0,0,0
560,0.92036,12.558,0.10313,0,0,0,0
562.5,0.93445,12.567,0.10557,0,0,0,0
565,0.9477,12.576,0.10839,0,0,0,0
567.5,0.9623,12.585,0.1116,0,0,0,0
570,0.97621,12.594,0.11483,0,0,0,0
572.5,0.99021,12.598,0.11805,0,0,0,0
575,1.0048,12.603,0.12117,0,0,0,0
577.5,1.0191,12.606,0.12419,0,0,0,0
580,1.0344,12.616,0.12756,0,0,0,0
582.5,1.0484,12.617,0.13159,0,0,0,0
585,1.0637,12.618,0.13541,0,0,0,0
587.5,1.0783,12.616,0.13936,0,0,0,0
590,1.0941,12.613,0.14344,0,0,0,0
592.5,1.1088,12.612,0.14776,0,0,0,0
595,1.1254,12.607,0.15219,0,0,0,0
597.5,1.1404,12.6,0.15682,0,0,0,0
600,1.157,12.593,0.16175,0,0,0,0
602.5,1.173,12.584,0.16634,0,0,0,0
605,1.1896,12.572,0.17151,0,0,0,0
607.5,1.2061,12.562,0.17699,0,0,0,0
610,1.2233,12.546,0.18211,0,0,0,0
612.5,1.2396,12.53,0.18818,0,0,0,0
615,1.2569,12.51,0.1949,0,0,0,0
617.5,1.274,12.489,0.20123,0,0,0,0
620,1.2916,12.467,0.20795,0,0,0,0
622.5,1.3088,12.438,0.21455,0,0,0,0
625,1.3273,12.413,0.22201,0,0,0,0
627.5,1.345,12.382,0.22993,0,0,0,0
630,1.3637,12.348,0.2381,0,0,0,0
632.5,1.3822,12.309,0.24634,0,0,0,0
635,1.4014,12.269,0.25416,0,0,0,0
637.5,1.42,12.222,0.26224,0,0,0,0
640,1.4399,12.175,0.27131,0,0,0,0
642.5,1.4591,12.118,0.28015,0,0,0,0
645,1.4797,12.059,0.28983,0,0,0,0
647.5,1.4992,11.989,0.29986,0,0,0,0
650,1.5203,11.917,0.31028,0,0,0,0
652.5,1.5414,11.83,0.32056,0,0,0,0
653.5,1.5512,11.782,0.32542,0,0,0,0