File: lab_data/AA6014-T4_results/DATA/CH_00_1.csv
Time[s],Displacement[mm],Force[kN],AxStrain_1,AxStrain_2,Thickness[mm],OuterWidth[mm],Diameter[mm]
0.58,0,-0.0053786,0,0,1.1255,19.962,5.2269
3.08,0.001681,0.091992,0.00010099,-2e-06,0,0,0
5.58,0.002718,0.18,0.00010599,0.00010999,0,0,0
8.09,0.003326,0.23915,5.4998e-05,0.00018798,0,0,0
10.59,0.004609,0.31257,9.7995e-05,0.00032195,0,0,0
13.09,0.005892,0.38743,0.00026896,0.00035894,0,0,0
15.59,0.006923,0.46214,0.00033894,0.00029896,0,0,0
18.09,0.007775,0.54071,0.0004429,0.00047289,0,0,0
20.59,0.008967,0.62115,0.00040592,0.0006278,0,0,0
23.09,0.010726,0.70285,0.00062081,0.00083565,0,0,0
25.59,0.012519,0.78314,0.00084864,0.0007717,0,0,0
28.09,0.01355,0.864,0.00058383,0.00091658,0,0,0
30.58,0.0145,0.94515,0.00086263,0.00098951,0,0,0
33.08,0.016229,1.0239,0.00092257,0.00095255,0,0,0
35.59,0.018438,1.1031,0.0012243,0.0012782,0,0,0
38.09,0.01965,1.1809,0.0012143,0.0011403,0,0,0
40.59,0.02066,1.2577,0.0013181,0.0013421,0,0,0
43.08,0.022158,1.3339,0.0013151,0.001386,0,0,0
45.59,0.024353,1.409,0.0016067,0.0017175,0,0,0
48.09,0.026049,1.4829,0.0021467,0.002009,0,0,0
50.58,0.027076,1.5563,0.0020489,0.0020389,0,0,0
53.08,0.028845,1.6291,0.002458,0.0022874,0,0,0
55.58,0.030883,1.7001,0.0029536,0.002836,0,0,0
58.08,0.0332,1.7719,0.0035457,0.0032348,0,0,0
60.58,0.035013,1.8399,0.0036663,0.0034182,0,0,0
63.08,0.038021,1.9076,0.004,0.0037061,0,0,0
65.58,0.041113,1.9686,0.0050363,0.0047059,0,0,0
68.08,0.04488,2.0264,0.0063717,0.0056112,0,0,0
70.58,0.050214,2.0767,0.0072288,0.0066816,0,0,0
73.08,0.057597,2.1217,0.0082112,0.0075425,0,0,0
75.58,0.064701,2.1623,0.0098979,0.0091401,0,0,0
78.08,0.072879,2.1986,0.012176,0.011356,0,0,0
80.58,0.082051,2.2337,0.013681,0.013061,0,0,0
83.08,0.090541,2.2661,0.014747,0.014326,0,0,0
85.58,0.10043,2.2973,0.01698,0.01596,0,0,0
88.08,0.11021,2.3276,0.019251,0.018343,0,0,0
90.58,0.11964,2.3567,0.020914,0.020187,0,0,0
93.08,0.13065,2.3837,0.022372,0.021679,0,0,0
95.58,0.14067,2.4117,0.024307,0.023268,0,0,0
98.08,0.15155,2.4373,0.026291,0.02527,0,0,0
100.58,0.16226,2.4626,0.027905,0.026957,0,0,0
103.08,0.1729,2.4874,0.029673,0.028554,0,0,0
105.58,0.18402,2.5114,0.031591,0.030481,0,0,0
108.08,0.194,2.5347,0.033531,0.032218,0,0,0
110.58,0.20479,2.5573,0.034806,0.033901,0,0,0
113.08,0.21514,2.5787,0.036804,0.03558,0,0,0
115.58,0.225,2.6,0.038528,0.037179,0,0,0
118.08,0.23667,2.6203,0.040238,0.038883,0,0,0
120.58,0.2464,2.6403,0.041946,0.040529,0,0,0
123.08,0.25716,2.6593,0.04349,0.042332,0,0,0
125.58,0.2672,2.6777,0.045,0.04378,0,0,0
128.08,0.27698,2.6953,0.046475,0.04516,0,0,0
130.58,0.28734,2.713,0.048236,0.046924,0,0,0
133.08,0.29676,2.729,0.049547,0.04846,0,0,0
135.58,0.3067,2.745,0.050952,0.049611,0,0,0
138.08,0.31606,2.7607,0.052227,0.050983,0,0,0
140.58,0.32484,2.7753,0.054073,0.052577,0,0,0
143.08,0.3348,2.79,0.055249,0.053628,0,0,0
145.58,0.34369,2.8036,0.056741,0.054963,0,0,0
148.08,0.35315,2.8177,0.057946,0.056265,0,0,0
150.58,0.36258,2.8307,0.059339,0.05766,0,0,0
153.08,0.37156,2.8443,0.060635,0.058864,0,0,0
155.58,0.38122,2.857,0.06193,0.060129,0,0,0
158.08,0.39019,2.8697,0.063444,0.061361,0,0,0
160.58,0.39838,2.882,0.064703,0.062655,0,0,0
163.08,0.40877,2.894,0.066055,0.064042,0,0,0
165.58,0.41729,2.906,0.067217,0.065081,0,0,0
168.08,0.42688,2.9173,0.068849,0.066558,0,0,0
170.58,0.43607,2.929,0.06982,0.067876,0,0,0
173.08,0.4451,2.9407,0.07104,0.069067,0,0,0
175.58,0.45509,2.952,0.07229,0.070195,0,0,0
178.08,0.4639,2.963,0.073787,0.071446,0,0,0
180.58,0.47306,2.9737,0.074972,0.072726,0,0,0
183.08,0.48253,2.9843,0.07603,0.074068,0,0,0
185.58,0.49069,2.995,0.077274,0.075065,0,0,0
188.08,0.50043,3.0054,0.078672,0.076216,0,0,0
190.58,0.50936,3.0153,0.079664,0.077709,0,0,0
193.08,0.51825,3.0253,0.080966,0.079136,0,0,0
195.58,0.52806,3.035,0.081894,0.080098,0,0,0
198.08,0.53655,3.0456,0.083223,0.081275,0,0,0
200.58,0.54595,3.0553,0.084551,0.082574,0,0,0
203.08,0.55528,3.065,0.085723,0.08384,0,0,0
205.58,0.56408,3.074,0.086769,0.085013,0,0,0
208.08,0.57341,3.084,0.088061,0.085999,0,0,0
210.58,0.58207,3.0937,0.089505,0.087384,0,0,0
213.08,0.59117,3.103,0.090671,0.088522,0,0,0
215.58,0.60101,3.112,0.091744,0.089597,0,0,0
218.08,0.6096,3.121,0.092968,0.090855,0,0,0
220.58,0.61924,3.1303,0.094405,0.092142,0,0,0
223.08,0.62854,3.1393,0.095626,0.093396,0,0,0
225.58,0.63703,3.1483,0.096815,0.094373,0,0,0
228.08,0.64673,3.157,0.09779,0.095686,0,0,0
230.58,0.65529,3.1657,0.09922,0.096784,0,0,0
233.08,0.66412,3.1747,0.10047,0.098002,0,0,0
235.58,0.67369,3.1833,0.10189,0.099402,0,0,0
238.08,0.68239,3.1917,0.10295,0.10031,0,0,0
240.58,0.69205,3.1997,0.10434,0.10186,0,0,0
243.08,0.70115,3.2087,0.1057,0.10304,0,0,0
245.58,0.71032,3.2173,0.10694,0.10452,0,0,0
248.08,0.72005,3.225,0.10845,0.1054,0,0,0
250.58,0.72845,3.2333,0.10953,0.10673,0,0,0
253.08,0.73754,3.2413,0.11092,0.10803,0,0,0
255.58,0.74654,3.2497,0.11221,0.10947,0,0,0
258.08,0.75514,3.2573,0.11359,0.11058,0,0,0
260.58,0.76494,3.2657,0.11476,0.11176,0,0,0
263.08,0.77347,3.273,0.11598,0.11311,0,0,0
265.58,0.78246,3.281,0.11733,0.11454,0,0,0
268.08,0.79173,3.2893,0.1187,0.11586,0,0,0
270.58,0.80053,3.2963,0.11989,0.11697,0,0,0
273.08,0.80959,3.304,0.12129,0.11831,0,0,0
275.58,0.81852,3.312,0.1226,0.11971,0,0,0
278.08,0.82715,3.3197,0.12387,0.12117,0,0,0
280.58,0.83661,3.3273,0.12512,0.12245,0,0,0
283.08,0.84551,3.3347,0.12675,0.1239,0,0,0
285.58,0.85515,3.342,0.12813,0.12544,0,0,0
288.08,0.86445,3.3493,0.12937,0.12663,0,0,0
290.58,0.87304,3.3563,0.13076,0.1279,0,0,0
293.08,0.88281,3.3647,0.13241,0.12943,0,0,0
295.58,0.89154,3.3717,0.13391,0.13097,0,0,0
298.08,0.90057,3.3783,0.1352,0.13208,0,0,0
300.58,0.90994,3.3853,0.13652,0.13349,0,0,0
303.08,0.91853,3.3923,0.13819,0.13496,0,0,0
305.58,0.92753,3.3997,0.13947,0.13643,0,0,0
308.08,0.937,3.4067,0.14081,0.13769,0,0,0
310.58,0.94562,3.4133,0.14253,0.13912,0,0,0
313.08,0.95499,3.42,0.14396,0.14064,0,0,0
315.58,0.96385,3.4273,0.14535,0.14224,0,0,0
318.08,0.97272,3.4343,0.14712,0.14355,0,0,0
320.58,0.98215,3.441,0.14857,0.14521,0,0,0
323.08,0.99058,3.4473,0.1501,0.14672,0,0,0
325.58,1.0002,3.4543,0.15172,0.14819,0,0,0
328.08,1.0093,3.4607,0.15342,0.1499,0,0,0
330.58,1.0184,3.467,0.15497,0.15146,0,0,0
333.08,1.0276,3.4737,0.15632,0.15293,0,0,0
335.58,1.0365,3.48,0.15799,0.15431,0,0,0
338.08,1.0456,3.4863,0.15982,0.15603,0,0,0
340.58,1.0548,3.4927,0.16102,0.15781,0,0,0
343.08,1.0633,3.499,0.16256,0.15882,0,0,0
345.58,1.0722,3.5053,0.16422,0.16022,0,0,0
348.08,1.0812,3.5113,0.1659,0.16208,0,0,0
350.58,1.0904,3.5177,0.1676,0.16393,0,0,0
353.08,1.0995,3.5243,0.16916,0.1651,0,0,0
355.58,1.1085,3.53,0.17089,0.16669,0,0,0
358.08,1.1177,3.5356,0.17267,0.16874,0,0,0
360.58,1.1268,3.542,0.17431,0.17058,0,0,0
363.08,1.1359,3.5477,0.17625,0.17194,0,0,0
365.58,1.1449,3.5537,0.17814,0.17349,0,0,0
368.08,1.1537,3.559,0.17988,0.17555,0,0,0
370.58,1.1632,3.565,0.18139,0.17718,0,0,0
373.08,1.1724,3.571,0.18343,0.17895,0,0,0
375.58,1.1814,3.5763,0.18519,0.18066,0,0,0
378.08,1.1906,3.582,0.18709,0.18245,0,0,0
380.58,1.1995,3.588,0.18878,0.18421,0,0,0
383.08,1.2086,3.593,0.19067,0.1863,0,0,0
385.58,1.2176,3.599,0.19261,0.18773,0,0,0
388.08,1.2268,3.6047,0.19455,0.18942,0,0,0
390.58,1.2361,3.61,0.19648,0.19156,0,0,0
393.08,1.2455,3.6153,0.19819,0.19341,0,0,0
395.58,1.2543,3.621,0.20034,0.1951,0,0,0
398.08,1.2637,3.6263,0.20264,0.19692,0,0,0
400.58,1.2731,3.6317,0.20448,0.1989,0,0,0
403.08,1.2826,3.637,0.20653,0.20097,0,0,0
405.58,1.2917,3.642,0.20879,0.20305,0,0,0
408.08,1.301,3.648,0.21089,0.20529,0,0,0
410.58,1.3102,3.6527,0.21314,0.2071,0,0,0
413.08,1.3198,3.6573,0.21525,0.20928,0,0,0
415.58,1.3294,3.6623,0.21758,0.2114,0,0,0
418.08,1.3391,3.667,0.21957,0.21365,0,0,0
420.58,1.3485,3.6727,0.22194,0.21585,0,0,0
423.08,1.3578,3.678,0.22441,0.21814,0,0,0
425.58,1.3674,3.6827,0.22645,0.22041,0,0,0
428.08,1.3769,3.6873,0.22894,0.2227,0,0,0
430.58,1.3866,3.6924,0.23134,0.2249,0,0,0
433.08,1.396,3.6977,0.23387,0.22728,0,0,0
435.58,1.4057,3.702,0.23633,0.22974,0,0,0
438.08,1.4153,3.7063,0.2388,0.23219,0,0,0
440.58,1.4249,3.7117,0.2417,0.23479,0,0,0
443.08,1.4349,3.7157,0.24431,0.237,0,0,0
445.58,1.4446,3.72,0.24717,0.23935,0,0,0
448.08,1.4544,3.725,0.2496,0.24215,0,0,0
450.58,1.464,3.7293,0.2525,0.24467,0,0,0
453.08,1.474,3.7337,0.25552,0.24696,0,0,0
455.58,1.484,3.738,0.25841,0.24952,0,0,0
458.08,1.4941,3.743,0.26097,0.25271,0,0,0
460.58,1.5041,3.7467,0.2644,0.25568,0,0,0
463.08,1.5139,3.7503,0.26772,0.25828,0,0,0
465.58,1.5242,3.7556,0.27034,0.26123,0,0,0
468.08,1.5344,3.7593,0.27397,0.26435,0,0,0
470.58,1.5451,3.7637,0.27761,0.26759,0,0,0
473.08,1.5557,3.767,0.28071,0.2708,0,0,0
475.58,1.5661,3.7713,0.28458,0.2743,0,0,0
478.08,1.5769,3.775,0.28839,0.27774,0,0,0
480.58,1.5874,3.779,0.29168,0.28102,0,0,0
483.08,1.5983,3.7827,0.29564,0.28468,0,0,0
485.58,1.609,3.7857,0.29955,0.28836,0,0,0
488.08,1.62,3.7893,0.30345,0.29208,0,0,0
490.58,1.631,3.793,0.30755,0.29601,0,0,0
493.08,1.6423,3.7963,0.31213,0.2999,0,0,0
495.58,1.6537,3.799,0.31645,0.30407,0,0,0
498.08,1.6651,3.8017,0.32106,0.30827,0,0,0
500.58,1.6768,3.8047,0.3257,0.31245,0,0,0
503.08,1.6888,3.8073,0.33068,0.31721,0,0,0
505.58,1.7006,3.8097,0.33598,0.32213,0,0,0
508.08,1.7133,3.8117,0.34107,0.32725,0,0,0
510.58,1.7255,3.8137,0.34714,0.33247,0,0,0
513.08,1.738,3.8153,0.35265,0.33787,0,0,0
515.58,1.7511,3.8167,0.35894,0.34362,0,0,0
518.08,1.7643,3.817,0.36573,0.34942,0,0,0
520.58,1.7779,3.817,0.37198,0.35546,0,0,0
523.08,1.7914,3.8166,0.37934,0.36177,0,0,0
525.58,1.8054,3.816,0.38675,0.36848,0,0,0
528.08,1.8201,3.8143,0.39475,0.3754,0,0,0
530.58,1.8346,3.8113,0.40313,0.38266,0,0,0
533.08,1.8496,3.808,0.41204,0.39048,0,0,0
535.58,1.865,3.804,0.42114,0.39811,0,0,0
538.08,1.8809,3.7947,0.4314,0.40702,0,0,0
540.58,1.8979,3.7767,0.44336,0.4167,0,0,0
543.08,1.9156,3.756,0.45574,0.42693,0,0,0
545.58,1.9348,3.7227,0.47032,0.43917,0,0,0
546.08,1.9402,3.7056,0.47463,0.4554,0,0,0