File: lab_data/AA6014-T4_results/DATA/CH_00_3.csv
Time[s],Displacement[mm],Force[kN],AxStrain_1,AxStrain_2,Thickness[mm],OuterWidth[mm],Diameter[mm]
0.61,0,-0.005415,0,0,1.1163,19.965,5.231
3.11,0.001184,0.09571,-5.4001e-05,8.4996e-05,0,0,0
5.61,0.002354,0.184,2.7e-05,0.00014999,0,0,0
8.11,0.003155,0.25386,0.00012499,4.2999e-05,0,0,0
10.61,0.004663,0.32386,0.00040992,0.00017199,0,0,0
13.11,0.00631,0.39985,0.00042991,0.00046989,0,0,0
15.61,0.007117,0.47629,0.0004429,0.00038293,0,0,0
18.11,0.008158,0.555,0.00056084,0.00049988,0,0,0
20.61,0.009256,0.63686,0.00055684,0.00064479,0,0,0
23.11,0.011629,0.71914,0.00079169,0.00071474,0,0,0
25.61,0.013342,0.802,0.00080168,0.0010574,0,0,0
28.11,0.013946,0.884,0.00084564,0.00075472,0,0,0
30.61,0.015366,0.96586,0.00097952,0.00081567,0,0,0
33.11,0.017478,1.0459,0.00095355,0.0010205,0,0,0
35.61,0.019344,1.1279,0.0013721,0.0012982,0,0,0
38.11,0.021006,1.2073,0.0012682,0.0012013,0,0,0
40.61,0.021822,1.2861,0.0011813,0.0013151,0,0,0
43.11,0.023313,1.3646,0.0015598,0.0015159,0,0,0
45.61,0.024951,1.4404,0.0017644,0.0017714,0,0,0
48.11,0.027039,1.515,0.0020788,0.0020529,0,0,0
50.61,0.028701,1.5907,0.0022565,0.0022565,0,0,0
53.11,0.030077,1.6639,0.0023842,0.002458,0,0,0
55.61,0.03225,1.7359,0.0027831,0.00284,0,0,0
58.11,0.034647,1.8069,0.0036493,0.0034122,0,0,0
60.61,0.037175,1.876,0.0037998,0.0039273,0,0,0
63.11,0.040257,1.9406,0.0041175,0.0042241,0,0,0
65.61,0.044275,2.0009,0.0052064,0.0050134,0,0,0
68.11,0.048582,2.0541,0.0070918,0.0064352,0,0,0
70.61,0.055116,2.1017,0.0080951,0.0075951,0,0,0
73.11,0.062877,2.1444,0.0089806,0.0085642,0,0,0
75.61,0.070371,2.1829,0.010673,0.010101,0,0,0
78.11,0.079781,2.2186,0.013323,0.012617,0,0,0
80.61,0.089074,2.2527,0.014816,0.01427,0,0,0
83.11,0.097648,2.2853,0.016065,0.015484,0,0,0
85.61,0.10842,2.316,0.017792,0.017399,0,0,0
88.11,0.11759,2.3453,0.020357,0.019348,0,0,0
90.61,0.12783,2.3744,0.021926,0.021019,0,0,0
93.11,0.1389,2.402,0.023508,0.022517,0,0,0
95.61,0.1491,2.4287,0.025444,0.02453,0,0,0
98.11,0.15995,2.4546,0.027383,0.026242,0,0,0
100.61,0.17059,2.4793,0.029422,0.027944,0,0,0
103.11,0.18155,2.5037,0.030992,0.029585,0,0,0
105.61,0.19266,2.5277,0.032787,0.03134,0,0,0
108.11,0.20305,2.55,0.034627,0.032858,0,0,0
110.61,0.21425,2.5727,0.036263,0.034728,0,0,0
113.11,0.22427,2.594,0.038282,0.036182,0,0,0
115.61,0.23503,2.6143,0.039512,0.037865,0,0,0
118.11,0.24599,2.6347,0.041495,0.0394,0,0,0
120.61,0.25508,2.6543,0.043072,0.040947,0,0,0
123.11,0.26586,2.6727,0.044614,0.042429,0,0,0
125.61,0.27571,2.6907,0.046186,0.044036,0,0,0
128.11,0.28579,2.708,0.04766,0.045448,0,0,0
130.61,0.29585,2.724,0.049515,0.046827,0,0,0
133.11,0.30496,2.7407,0.050983,0.048236,0,0,0
135.61,0.31534,2.7556,0.051972,0.04977,0,0,0
138.11,0.32457,2.771,0.053373,0.050952,0,0,0
140.61,0.33436,2.7857,0.055059,0.052291,0,0,0
143.11,0.34327,2.8,0.056424,0.053373,0,0,0
145.61,0.35196,2.8134,0.057724,0.054741,0,0,0
148.11,0.36186,2.827,0.058801,0.055853,0,0,0
150.61,0.37047,2.8403,0.060161,0.057407,0,0,0
153.11,0.38028,2.853,0.061677,0.058484,0,0,0
155.61,0.38963,2.8663,0.062971,0.059687,0,0,0
158.11,0.39847,2.878,0.06401,0.060983,0,0,0
160.61,0.40775,2.8907,0.065646,0.062246,0,0,0
163.11,0.41737,2.9027,0.066683,0.06338,0,0,0
165.61,0.42559,2.9143,0.067971,0.064357,0,0,0
168.11,0.43535,2.9253,0.069099,0.065678,0,0,0
170.61,0.4442,2.937,0.07057,0.066872,0,0,0
173.11,0.45339,2.9483,0.071602,0.068064,0,0,0
175.61,0.46298,2.959,0.072852,0.069193,0,0,0
178.11,0.47167,2.97,0.073975,0.070195,0,0,0
180.61,0.48097,2.9806,0.075222,0.071446,0,0,0
183.11,0.49019,2.991,0.076559,0.072758,0,0,0
185.61,0.49869,3.0013,0.077709,0.073787,0,0,0
188.11,0.50815,3.012,0.079013,0.074785,0,0,0
190.61,0.51674,3.022,0.080284,0.075906,0,0,0
193.11,0.52574,3.0317,0.081461,0.077336,0,0,0
195.61,0.53514,3.042,0.082574,0.078361,0,0,0
198.11,0.54336,3.0517,0.083717,0.079136,0,0,0
200.61,0.55347,3.0614,0.08489,0.08047,0,0,0
203.11,0.5625,3.0703,0.086461,0.081646,0,0,0
205.61,0.57099,3.08,0.087385,0.082697,0,0,0
208.11,0.58059,3.0896,0.088308,0.083717,0,0,0
210.61,0.58905,3.099,0.089751,0.085074,0,0,0
213.11,0.59812,3.108,0.091039,0.086184,0,0,0
215.61,0.60705,3.117,0.092295,0.087446,0,0,0
218.11,0.61591,3.1263,0.093151,0.088522,0,0,0
220.61,0.62541,3.135,0.094405,0.089843,0,0,0
223.11,0.63428,3.144,0.095992,0.090916,0,0,0
225.61,0.64311,3.1523,0.096876,0.091866,0,0,0
228.11,0.65251,3.1613,0.098125,0.093151,0,0,0
230.61,0.66103,3.17,0.099311,0.094557,0,0,0
233.11,0.66959,3.1787,0.1008,0.095534,0,0,0
235.61,0.67893,3.187,0.10195,0.09651,0,0,0
238.11,0.68776,3.1953,0.10286,0.09782,0,0,0
240.61,0.69699,3.204,0.10453,0.099158,0,0,0
243.11,0.70602,3.2123,0.10589,0.10025,0,0,0
245.61,0.71505,3.2207,0.10673,0.10122,0,0,0
248.11,0.72448,3.2283,0.10794,0.10235,0,0,0
250.61,0.73294,3.2367,0.10956,0.10368,0,0,0
253.11,0.74201,3.2444,0.11104,0.10492,0,0,0
255.61,0.75101,3.2526,0.11209,0.10604,0,0,0
258.11,0.75953,3.2607,0.11341,0.10712,0,0,0
260.61,0.76863,3.2687,0.11473,0.10824,0,0,0
263.11,0.77743,3.2763,0.1161,0.10941,0,0,0
265.61,0.78612,3.2837,0.11733,0.11056,0,0,0
268.11,0.79569,3.2917,0.11852,0.11194,0,0,0
270.61,0.80415,3.2993,0.11977,0.11293,0,0,0
273.11,0.81368,3.3067,0.1212,0.11422,0,0,0
275.61,0.82258,3.315,0.12254,0.11544,0,0,0
278.11,0.83141,3.3223,0.12396,0.11688,0,0,0
280.61,0.84001,3.3297,0.12524,0.1181,0,0,0
283.11,0.84887,3.3374,0.12636,0.11914,0,0,0
285.61,0.8577,3.3443,0.12781,0.12078,0,0,0
288.11,0.8671,3.3513,0.1292,0.12203,0,0,0
290.61,0.87596,3.359,0.1307,0.12331,0,0,0
293.11,0.88526,3.3663,0.13182,0.12464,0,0,0
295.61,0.89422,3.373,0.13317,0.12583,0,0,0
298.11,0.90268,3.38,0.13473,0.12725,0,0,0
300.61,0.91198,3.3873,0.13619,0.12852,0,0,0
303.11,0.92061,3.3943,0.13745,0.12973,0,0,0
305.61,0.92981,3.4017,0.13871,0.13135,0,0,0
308.11,0.93888,3.4083,0.14038,0.13238,0,0,0
310.61,0.9474,3.4147,0.14178,0.13388,0,0,0
313.11,0.95657,3.4223,0.14294,0.13505,0,0,0
315.61,0.96533,3.4293,0.14463,0.13649,0,0,0
318.11,0.97429,3.436,0.14631,0.13792,0,0,0
320.61,0.98359,3.4423,0.14761,0.13944,0,0,0
323.11,0.99235,3.449,0.14918,0.14078,0,0,0
325.61,1.0013,3.4557,0.15056,0.14215,0,0,0
328.11,1.0105,3.4627,0.15232,0.14349,0,0,0
330.61,1.0194,3.4683,0.15391,0.14497,0,0,0
333.11,1.0288,3.475,0.15538,0.14642,0,0,0
335.61,1.0379,3.4817,0.1569,0.14764,0,0,0
338.11,1.0469,3.488,0.15856,0.14938,0,0,0
340.61,1.056,3.4947,0.15999,0.15071,0,0,0
343.11,1.0649,3.5007,0.16168,0.15227,0,0,0
345.61,1.0738,3.5073,0.16353,0.15368,0,0,0
348.11,1.0827,3.5137,0.16479,0.1552,0,0,0
350.61,1.0915,3.5197,0.16647,0.15664,0,0,0
353.11,1.1015,3.5267,0.16817,0.15827,0,0,0
355.61,1.1101,3.5317,0.16998,0.15988,0,0,0
358.11,1.1187,3.5377,0.17168,0.16156,0,0,0
360.61,1.1284,3.544,0.17355,0.16296,0,0,0
363.11,1.1374,3.55,0.17493,0.16456,0,0,0
365.61,1.1469,3.556,0.17676,0.16624,0,0,0
368.11,1.156,3.562,0.17867,0.1678,0,0,0
370.61,1.1648,3.5673,0.18058,0.16964,0,0,0
373.11,1.1741,3.5734,0.18237,0.17097,0,0,0
375.61,1.1831,3.579,0.18377,0.17281,0,0,0
378.11,1.1925,3.585,0.18569,0.1745,0,0,0
380.61,1.2012,3.591,0.18784,0.17628,0,0,0
383.11,1.2105,3.5963,0.18945,0.17771,0,0,0
385.61,1.2197,3.602,0.19134,0.17948,0,0,0
388.11,1.2288,3.608,0.19322,0.18158,0,0,0
390.61,1.2379,3.613,0.19516,0.18217,0,0,0
393.11,1.2473,3.6187,0.19728,0.18374,0,0,0
395.61,1.2566,3.6244,0.19913,0.18586,0,0,0
398.11,1.2661,3.6296,0.20132,0.18781,0,0,0
400.61,1.2752,3.635,0.2033,0.1895,0,0,0
403.11,1.2846,3.6403,0.20513,0.19145,0,0,0
405.61,1.2942,3.645,0.20754,0.19363,0,0,0
408.11,1.3034,3.651,0.2098,0.19518,0,0,0
410.61,1.313,3.656,0.21178,0.19728,0,0,0
413.11,1.3223,3.661,0.21411,0.19948,0,0,0
415.61,1.3319,3.666,0.21636,0.20127,0,0,0
418.11,1.3412,3.6714,0.21844,0.20297,0,0,0
420.61,1.3508,3.677,0.22057,0.20524,0,0,0
423.11,1.3605,3.682,0.22297,0.2074,0,0,0
425.61,1.3696,3.6863,0.22535,0.20931,0,0,0
428.11,1.3794,3.6913,0.22782,0.21154,0,0,0
430.61,1.389,3.697,0.23024,0.21379,0,0,0
433.11,1.3988,3.7016,0.23283,0.21612,0,0,0
435.61,1.4084,3.706,0.23556,0.21841,0,0,0
438.11,1.4184,3.711,0.23795,0.2206,0,0,0
440.61,1.4279,3.7157,0.2402,0.22275,0,0,0
443.11,1.4376,3.72,0.2431,0.22527,0,0,0
445.61,1.4473,3.725,0.24591,0.22782,0,0,0
448.11,1.457,3.73,0.24874,0.23008,0,0,0
450.61,1.4668,3.734,0.25138,0.23251,0,0,0
453.11,1.4771,3.738,0.2543,0.23527,0,0,0
455.61,1.487,3.743,0.25716,0.23782,0,0,0
458.11,1.4971,3.747,0.2604,0.24051,0,0,0
460.61,1.5072,3.751,0.26368,0.24341,0,0,0
463.11,1.5174,3.756,0.267,0.24609,0,0,0
465.61,1.5281,3.7607,0.27021,0.24866,0,0,0
468.11,1.5379,3.764,0.27356,0.25159,0,0,0
470.61,1.5482,3.768,0.27693,0.25446,0,0,0
473.11,1.559,3.772,0.28041,0.25765,0,0,0
475.61,1.5695,3.776,0.28415,0.26128,0,0,0
478.11,1.5802,3.78,0.28746,0.26422,0,0,0
480.61,1.5908,3.784,0.29173,0.26728,0,0,0
483.11,1.6021,3.7873,0.29568,0.27085,0,0,0
485.61,1.6128,3.7903,0.29992,0.27435,0,0,0
488.11,1.6242,3.7937,0.30419,0.2782,0,0,0
490.61,1.6351,3.7977,0.30911,0.28223,0,0,0
493.11,1.6466,3.8003,0.31324,0.28587,0,0,0
495.61,1.6584,3.8037,0.31777,0.29007,0,0,0
498.11,1.6697,3.8064,0.32332,0.29436,0,0,0
500.61,1.6816,3.8093,0.32846,0.29873,0,0,0
503.11,1.6936,3.8113,0.33384,0.30342,0,0,0
505.61,1.706,3.8137,0.33978,0.30829,0,0,0
508.11,1.7186,3.8153,0.34619,0.31294,0,0,0
510.61,1.7315,3.8163,0.35195,0.31806,0,0,0
513.11,1.7444,3.818,0.35922,0.32364,0,0,0
515.61,1.7573,3.818,0.36632,0.32912,0,0,0
518.11,1.7714,3.8167,0.37489,0.33518,0,0,0
520.61,1.7851,3.8156,0.38278,0.34127,0,0,0
523.11,1.7992,3.8143,0.39112,0.3475,0,0,0
525.61,1.8141,3.811,0.40063,0.35419,0,0,0
528.11,1.8293,3.804,0.41086,0.36161,0,0,0
530.61,1.8456,3.7923,0.42213,0.36895,0,0,0
533.11,1.8616,3.7843,0.4329,0.37699,0,0,0
535.61,1.8784,3.7704,0.44461,0.38495,0,0,0
538.11,1.8969,3.7457,0.45793,0.39398,0,0,0
540.61,1.9139,3.7223,0.47028,0.40365,0,0,0
542.11,1.9266,3.7007,0.47899,0.40962,0,0,0