File: lab_data/AA6014-T4_results/DATA/CH_45_1.csv
Time[s],Displacement[mm],Force[kN],AxStrain_1,AxStrain_2,Thickness[mm],OuterWidth[mm],Diameter[mm]
0.64,0,-0.005032,0,0,1.1245,19.918,5.1972
3.63,0.001195,0.11485,0.0004369,-0.00022202,0,0,0
6.63,0.002586,0.22028,0.00052286,-2.3e-05,0,0,0
9.63,0.003485,0.29843,0.00034394,0.00018298,0,0,0
12.63,0.004882,0.38786,0.00037793,0.00027896,0,0,0
15.63,0.006335,0.47985,0.00073173,0.00030895,0,0,0
18.64,0.007477,0.57685,0.00088561,0.00045989,0,0,0
21.64,0.008856,0.67415,0.00064079,0.00060082,0,0,0
24.64,0.011525,0.77229,0.0009995,0.00075472,0,0,0
27.64,0.012714,0.87014,0.001386,0.00074472,0,0,0
30.64,0.013681,0.96715,0.0010265,0.00061781,0,0,0
33.63,0.015631,1.0633,0.0012482,0.00098352,0,0,0
36.63,0.018267,1.1589,0.0012512,0.0011983,0,0,0
39.63,0.019707,1.2514,0.0016536,0.0012412,0,0,0
42.63,0.021117,1.343,0.0018653,0.0013391,0,0,0
45.63,0.023585,1.4339,0.002016,0.0018243,0,0,0
48.63,0.025884,1.5221,0.0026016,0.0023273,0,0,0
51.63,0.027533,1.6103,0.0028968,0.002438,0,0,0
54.63,0.029889,1.6961,0.0033484,0.0029437,0,0,0
57.63,0.032931,1.7799,0.004241,0.0036832,0,0,0
60.63,0.035765,1.8597,0.0047855,0.0043515,0,0,0
63.63,0.040958,1.9321,0.0056242,0.0050602,0,0,0
66.64,0.046729,1.9936,0.0073886,0.0068386,0,0,0
69.63,0.054511,2.046,0.010128,0.0092927,0,0,0
72.64,0.064563,2.0937,0.011307,0.010952,0,0,0
75.64,0.074047,2.1376,0.013767,0.013157,0,0,0
78.64,0.085475,2.179,0.016476,0.016062,0,0,0
81.63,0.096406,2.2177,0.018431,0.018358,0,0,0
84.64,0.10847,2.2543,0.020519,0.02066,0,0,0
87.63,0.11981,2.289,0.023399,0.022822,0,0,0
90.63,0.13206,2.3224,0.025496,0.025329,0,0,0
93.63,0.14431,2.3543,0.027888,0.027895,0,0,0
96.63,0.15695,2.385,0.030012,0.030207,0,0,0
99.63,0.16988,2.4136,0.032508,0.03254,0,0,0
102.63,0.18261,2.4423,0.034832,0.034883,0,0,0
105.63,0.19573,2.469,0.036808,0.037112,0,0,0
108.63,0.20827,2.4946,0.039187,0.039747,0,0,0
111.63,0.2207,2.519,0.041186,0.041853,0,0,0
114.63,0.23235,2.5416,0.043268,0.043612,0,0,0
117.63,0.2441,2.5623,0.045192,0.045769,0,0,0
120.63,0.25458,2.5816,0.046892,0.048012,0,0,0
123.63,0.26599,2.6,0.048557,0.049515,0,0,0
126.63,0.27603,2.6176,0.050154,0.050856,0,0,0
129.63,0.2874,2.635,0.051845,0.053023,0,0,0
132.63,0.29863,2.652,0.053565,0.054646,0,0,0
135.63,0.31027,2.6673,0.055123,0.056234,0,0,0
138.63,0.32115,2.684,0.056806,0.057757,0,0,0
141.63,0.33221,2.6993,0.058486,0.059782,0,0,0
144.63,0.34375,2.7147,0.060257,0.061488,0,0,0
147.63,0.35508,2.7297,0.062026,0.063003,0,0,0
150.63,0.36651,2.7443,0.063445,0.064641,0,0,0
153.63,0.37757,2.759,0.064925,0.066275,0,0,0
156.63,0.38903,2.773,0.06678,0.067814,0,0,0
159.63,0.39941,2.7867,0.068223,0.069413,0,0,0
162.63,0.41132,2.8,0.069915,0.071103,0,0,0
165.63,0.42175,2.813,0.071323,0.072602,0,0,0
168.63,0.43321,2.826,0.07304,0.074256,0,0,0
171.63,0.44357,2.8383,0.074568,0.075783,0,0,0
174.63,0.45516,2.851,0.075846,0.077213,0,0,0
177.63,0.46545,2.863,0.077338,0.078953,0,0,0
180.63,0.4765,2.8746,0.079015,0.080657,0,0,0
183.63,0.48706,2.887,0.080162,0.082235,0,0,0
186.63,0.4975,2.898,0.081989,0.083687,0,0,0
189.63,0.50841,2.9093,0.083472,0.085138,0,0,0
192.63,0.51892,2.9203,0.085139,0.086771,0,0,0
195.63,0.5303,2.9313,0.086587,0.08834,0,0,0
198.63,0.54051,2.942,0.088033,0.089783,0,0,0
201.63,0.55199,2.9537,0.089323,0.091255,0,0,0
204.63,0.56213,2.964,0.091071,0.092939,0,0,0
207.63,0.57304,2.975,0.092266,0.094375,0,0,0
210.63,0.58358,2.985,0.093887,0.095872,0,0,0
213.63,0.59439,2.9953,0.095384,0.097365,0,0,0
216.63,0.60527,3.005,0.097122,0.098826,0,0,0
219.63,0.61591,3.0153,0.098522,0.10035,0,0,0
222.63,0.62686,3.0256,0.099921,0.10192,0,0,0
225.63,0.63716,3.0353,0.10159,0.10341,0,0,0
228.63,0.64848,3.0453,0.10317,0.1048,0,0,0
231.63,0.65845,3.055,0.10447,0.10667,0,0,0
234.63,0.66983,3.065,0.10595,0.10821,0,0,0
237.63,0.68017,3.074,0.10758,0.10951,0,0,0
240.63,0.69145,3.084,0.10905,0.11134,0,0,0
243.63,0.70229,3.093,0.11053,0.11302,0,0,0
246.63,0.71317,3.102,0.11227,0.11443,0,0,0
249.63,0.72395,3.1113,0.11368,0.11604,0,0,0
252.63,0.73466,3.1203,0.11524,0.11784,0,0,0
255.63,0.7453,3.13,0.11703,0.11942,0,0,0
258.63,0.75604,3.1387,0.11846,0.12102,0,0,0
261.63,0.76705,3.1477,0.11998,0.12263,0,0,0
264.63,0.77756,3.1563,0.12192,0.12462,0,0,0
267.63,0.78887,3.1653,0.12325,0.12621,0,0,0
270.63,0.79911,3.1737,0.12488,0.12763,0,0,0
273.63,0.81043,3.1823,0.12675,0.12935,0,0,0
276.63,0.8209,3.1913,0.12864,0.13144,0,0,0
279.63,0.83245,3.1997,0.13026,0.13291,0,0,0
282.63,0.84336,3.2083,0.13203,0.13482,0,0,0
285.63,0.85454,3.2167,0.13379,0.13655,0,0,0
288.63,0.86565,3.2247,0.13552,0.1383,0,0,0
291.63,0.8764,3.233,0.13757,0.14006,0,0,0
294.63,0.88751,3.242,0.13883,0.14154,0,0,0
297.63,0.89815,3.2493,0.1407,0.14349,0,0,0
300.63,0.9095,3.2573,0.14297,0.14524,0,0,0
303.63,0.92017,3.266,0.14405,0.14707,0,0,0
306.63,0.93156,3.2733,0.14585,0.14898,0,0,0
309.63,0.94233,3.2813,0.14817,0.15094,0,0,0
312.63,0.95344,3.2893,0.14953,0.15276,0,0,0
315.63,0.96409,3.297,0.15135,0.15486,0,0,0
318.63,0.97554,3.3053,0.15325,0.15667,0,0,0
321.63,0.98635,3.3126,0.15521,0.15868,0,0,0
324.63,0.99786,3.3203,0.1571,0.16065,0,0,0
327.63,1.0092,3.3277,0.15891,0.16271,0,0,0
330.63,1.0203,3.335,0.16091,0.16439,0,0,0
333.63,1.0314,3.342,0.16277,0.16667,0,0,0
336.63,1.0422,3.35,0.16479,0.16828,0,0,0
339.63,1.0533,3.357,0.16644,0.17016,0,0,0
342.63,1.0638,3.364,0.16849,0.17225,0,0,0
345.63,1.0754,3.372,0.17039,0.17462,0,0,0
348.63,1.0864,3.3787,0.17248,0.17617,0,0,0
351.63,1.0976,3.3853,0.1746,0.17817,0,0,0
354.63,1.1088,3.393,0.17651,0.18049,0,0,0
357.63,1.1201,3.3997,0.17851,0.18226,0,0,0
360.63,1.131,3.407,0.18089,0.18408,0,0,0
363.63,1.1422,3.414,0.18282,0.18642,0,0,0
366.63,1.1537,3.42,0.18497,0.18856,0,0,0
369.63,1.1649,3.427,0.18709,0.19048,0,0,0
372.63,1.1763,3.434,0.18949,0.19286,0,0,0
375.63,1.1875,3.44,0.19162,0.19472,0,0,0
378.63,1.1988,3.4467,0.19364,0.19712,0,0,0
381.63,1.2098,3.453,0.19591,0.19924,0,0,0
384.63,1.2211,3.46,0.19809,0.20152,0,0,0
387.63,1.2319,3.466,0.20026,0.2033,0,0,0
390.63,1.2435,3.473,0.20262,0.20565,0,0,0
393.63,1.2545,3.479,0.20487,0.20816,0,0,0
396.63,1.2661,3.485,0.20708,0.21013,0,0,0
399.63,1.2774,3.4913,0.20948,0.21254,0,0,0
402.63,1.2888,3.497,0.21182,0.21479,0,0,0
405.63,1.2999,3.5034,0.2144,0.21731,0,0,0
408.63,1.312,3.51,0.21688,0.22001,0,0,0
411.63,1.3233,3.516,0.21929,0.22248,0,0,0
414.63,1.3351,3.5217,0.22206,0.2249,0,0,0
417.63,1.3465,3.5273,0.22432,0.22715,0,0,0
420.63,1.3581,3.533,0.22692,0.2299,0,0,0
423.63,1.3699,3.539,0.22916,0.23264,0,0,0
426.63,1.3811,3.545,0.23188,0.23482,0,0,0
429.63,1.3928,3.5503,0.23451,0.23747,0,0,0
432.63,1.4042,3.557,0.23695,0.24012,0,0,0
435.63,1.4162,3.562,0.23992,0.24294,0,0,0
438.63,1.4278,3.567,0.24279,0.24573,0,0,0
441.63,1.4398,3.573,0.24568,0.24835,0,0,0
444.63,1.4514,3.578,0.24859,0.25125,0,0,0
447.63,1.4632,3.5837,0.25108,0.25412,0,0,0
450.63,1.4747,3.589,0.25421,0.25693,0,0,0
453.63,1.4866,3.594,0.25728,0.25996,0,0,0
456.63,1.4982,3.6,0.2599,0.26312,0,0,0
459.63,1.5106,3.6047,0.26367,0.26592,0,0,0
462.63,1.5221,3.6093,0.26668,0.26901,0,0,0
465.63,1.5342,3.615,0.26951,0.27216,0,0,0
468.63,1.5466,3.62,0.27296,0.27545,0,0,0
471.63,1.5588,3.625,0.2763,0.27894,0,0,0
474.63,1.571,3.6297,0.27979,0.28228,0,0,0
477.63,1.5835,3.6344,0.28341,0.28554,0,0,0
480.63,1.5958,3.6393,0.28674,0.28877,0,0,0
483.63,1.6084,3.644,0.29021,0.29271,0,0,0
486.63,1.6214,3.6483,0.29407,0.29641,0,0,0
489.63,1.6335,3.653,0.29787,0.29985,0,0,0
492.63,1.6461,3.6583,0.30153,0.30328,0,0,0
495.63,1.6587,3.662,0.30547,0.30684,0,0,0
498.63,1.6718,3.6667,0.30944,0.31096,0,0,0
501.63,1.6845,3.671,0.31347,0.31518,0,0,0
504.63,1.6977,3.675,0.31732,0.31892,0,0,0
507.63,1.7106,3.679,0.32173,0.3234,0,0,0
510.63,1.7242,3.683,0.32632,0.32742,0,0,0
513.63,1.7375,3.6867,0.33063,0.33134,0,0,0
516.63,1.7514,3.691,0.33537,0.33658,0,0,0
519.63,1.7646,3.694,0.34032,0.34105,0,0,0
522.63,1.7786,3.6973,0.34557,0.34626,0,0,0
525.63,1.7923,3.701,0.35071,0.35067,0,0,0
528.63,1.8066,3.7037,0.35653,0.35647,0,0,0
531.63,1.8206,3.7067,0.36211,0.36109,0,0,0
534.63,1.8349,3.7093,0.36815,0.36692,0,0,0
537.63,1.8498,3.7117,0.37431,0.37251,0,0,0
540.63,1.865,3.7137,0.38082,0.37867,0,0,0
543.63,1.8802,3.715,0.3877,0.38474,0,0,0
546.63,1.8962,3.716,0.39526,0.39144,0,0,0
549.63,1.9124,3.716,0.40236,0.39768,0,0,0
552.63,1.9289,3.716,0.41043,0.40541,0,0,0
555.63,1.9462,3.714,0.41841,0.41222,0,0,0
558.63,1.9633,3.7123,0.42737,0.42056,0,0,0
561.63,1.9812,3.709,0.43702,0.4288,0,0,0
564.63,1.9997,3.704,0.44716,0.43746,0,0,0
567.63,2.0188,3.6963,0.45775,0.44637,0,0,0
570.63,2.0384,3.6824,0.47002,0.45485,0,0,0