File: lab_data/AA6014-T4_results/DATA/CH_45_2.csv
Time[s],Displacement[mm],Force[kN],AxStrain_1,AxStrain_2,Thickness[mm],OuterWidth[mm],Diameter[mm]
0.63,0,-0.0046488,0,0,1.1332,19.939,5.0085
3.13,0.001341,0.092714,0.00020098,0.00018398,0,0,0
5.63,0.002431,0.18385,0.00026896,0.00012799,0,0,0
8.13,0.003148,0.26129,0.00032195,0.00014899,0,0,0
10.63,0.004129,0.32771,0.00020098,0.00031795,0,0,0
13.13,0.005571,0.40414,9.2996e-05,0.00035594,0,0,0
15.63,0.006748,0.47886,0.00046989,0.00034194,0,0,0
18.12,0.007638,0.56,0.00039992,0.00042991,0,0,0
20.63,0.008601,0.64029,0.00042991,0.00061081,0,0,0
23.13,0.010508,0.72186,0.00042591,0.00069476,0,0,0
25.63,0.012371,0.80357,0.0006378,0.00060782,0,0,0
28.13,0.013439,0.88414,0.00072873,0.00072474,0,0,0
30.63,0.014322,0.96657,0.00075472,0.00081167,0,0,0
33.13,0.016222,1.044,0.00086263,0.0009965,0,0,0
35.63,0.01826,1.1256,0.0013551,0.0010574,0,0,0
38.12,0.019694,1.2019,0.0013022,0.0011304,0,0,0
40.63,0.020523,1.2803,0.0017145,0.0013751,0,0,0
43.13,0.021812,1.356,0.0017145,0.0015768,0,0,0
45.63,0.02438,1.4314,0.0021936,0.0018243,0,0,0
48.12,0.026307,1.5064,0.0026654,0.0022265,0,0,0
50.63,0.027808,1.5794,0.0027821,0.0022195,0,0,0
53.13,0.029547,1.6531,0.0030773,0.0026724,0,0,0
55.63,0.031857,1.7227,0.0034859,0.0031171,0,0,0
58.12,0.034227,1.7931,0.0042818,0.0039074,0,0,0
60.62,0.036681,1.8576,0.00489,0.0043913,0,0,0
63.13,0.040975,1.9197,0.0056242,0.0049527,0,0,0
65.63,0.046044,1.9717,0.0070858,0.0063289,0,0,0
68.12,0.051789,2.0169,0.0094264,0.008471,0,0,0
70.62,0.059517,2.0579,0.010696,0.010205,0,0,0
73.12,0.068172,2.0971,0.01212,0.01147,0,0,0
75.63,0.076115,2.1336,0.014598,0.013893,0,0,0
78.12,0.085938,2.167,0.017034,0.016191,0,0,0
80.62,0.095227,2.2007,0.01864,0.018056,0,0,0
83.13,0.10452,2.2306,0.020379,0.019944,0,0,0
85.62,0.11518,2.261,0.022673,0.022202,0,0,0
88.12,0.12424,2.2893,0.024745,0.024504,0,0,0
90.62,0.13498,2.3173,0.026512,0.026652,0,0,0
93.12,0.14548,2.3441,0.028661,0.028904,0,0,0
95.63,0.15563,2.3697,0.030783,0.031179,0,0,0
98.12,0.16698,2.3946,0.032702,0.033279,0,0,0
100.62,0.17716,2.4183,0.034563,0.035246,0,0,0
103.12,0.18849,2.4417,0.036616,0.037491,0,0,0
105.63,0.19901,2.4636,0.03866,0.039611,0,0,0
108.12,0.20953,2.4853,0.040393,0.041535,0,0,0
110.62,0.22044,2.5053,0.042069,0.043261,0,0,0
113.12,0.23001,2.5246,0.044034,0.045207,0,0,0
115.62,0.24023,2.5427,0.045934,0.047118,0,0,0
118.12,0.24935,2.5597,0.047408,0.048909,0,0,0
120.62,0.25828,2.5753,0.048944,0.050411,0,0,0
123.12,0.26765,2.5903,0.050126,0.051815,0,0,0
125.62,0.27605,2.605,0.052009,0.053503,0,0,0
128.12,0.28567,2.6193,0.053315,0.055315,0,0,0
130.62,0.29499,2.6337,0.054524,0.056617,0,0,0
133.12,0.304,2.6477,0.056208,0.05817,0,0,0
135.62,0.31435,2.661,0.05789,0.059879,0,0,0
138.12,0.3231,2.6743,0.058998,0.061521,0,0,0
140.62,0.33263,2.6877,0.060422,0.062941,0,0,0
143.12,0.34228,2.7003,0.061938,0.064359,0,0,0
145.62,0.35109,2.713,0.063073,0.066026,0,0,0
148.12,0.36133,2.7257,0.064366,0.067596,0,0,0
150.62,0.37046,2.7377,0.065656,0.068913,0,0,0
153.12,0.37955,2.7497,0.067007,0.070541,0,0,0
155.62,0.38938,2.7613,0.068232,0.072198,0,0,0
158.12,0.39829,2.7727,0.069548,0.073571,0,0,0
160.62,0.40788,2.784,0.070831,0.07513,0,0,0
163.12,0.41674,2.795,0.072145,0.076686,0,0,0
165.62,0.4256,2.806,0.073518,0.078115,0,0,0
168.12,0.43564,2.8167,0.074826,0.079511,0,0,0
170.62,0.44422,2.827,0.076227,0.080968,0,0,0
173.12,0.45346,2.8376,0.077441,0.082051,0,0,0
175.62,0.46297,2.848,0.078589,0.083813,0,0,0
178.12,0.47181,2.858,0.079892,0.085139,0,0,0
180.62,0.48121,2.8676,0.081007,0.086495,0,0,0
183.12,0.48989,2.8777,0.0824,0.087787,0,0,0
185.62,0.49838,2.8867,0.08342,0.08917,0,0,0
188.12,0.50788,2.8966,0.084716,0.090459,0,0,0
190.62,0.51654,2.906,0.086135,0.091808,0,0,0
193.12,0.52564,2.915,0.087335,0.093154,0,0,0
195.62,0.53484,2.9247,0.088505,0.094469,0,0,0
198.12,0.54323,2.9337,0.089763,0.096117,0,0,0
200.62,0.55283,2.9427,0.090961,0.097366,0,0,0
203.12,0.56183,2.952,0.092309,0.098675,0,0,0
205.62,0.57062,2.96,0.093533,0.099982,0,0,0
208.12,0.57999,2.9693,0.094755,0.10159,0,0,0
210.62,0.58842,2.9777,0.096221,0.10305,0,0,0
213.12,0.59765,2.9863,0.097349,0.1045,0,0,0
215.62,0.60671,2.9947,0.098568,0.10601,0,0,0
218.12,0.61554,3.0033,0.099723,0.10719,0,0,0
220.62,0.62521,3.0117,0.1013,0.10869,0,0,0
223.12,0.63411,3.0203,0.10258,0.11005,0,0,0
225.62,0.64307,3.0283,0.10382,0.1114,0,0,0
228.12,0.6522,3.0367,0.10485,0.11269,0,0,0
230.62,0.66053,3.0447,0.10633,0.11431,0,0,0
233.12,0.66996,3.0527,0.10777,0.11575,0,0,0
235.62,0.67889,3.061,0.10913,0.11742,0,0,0
238.12,0.68786,3.0687,0.11021,0.11858,0,0,0
240.62,0.69763,3.0767,0.11148,0.12007,0,0,0
243.12,0.70622,3.0847,0.11289,0.12171,0,0,0
245.62,0.71566,3.0923,0.1143,0.12305,0,0,0
248.12,0.72465,3.1,0.11543,0.12423,0,0,0
250.62,0.73348,3.1077,0.1169,0.12583,0,0,0
253.12,0.74261,3.115,0.1183,0.12743,0,0,0
255.62,0.75121,3.1227,0.11961,0.12876,0,0,0
258.12,0.76017,3.13,0.12101,0.13017,0,0,0
260.62,0.76957,3.1377,0.12232,0.13138,0,0,0
263.12,0.77813,3.1447,0.12351,0.13297,0,0,0
265.62,0.78767,3.1517,0.12484,0.13435,0,0,0
268.12,0.79673,3.1597,0.12638,0.13605,0,0,0
270.62,0.80546,3.1667,0.12759,0.13722,0,0,0
273.12,0.81493,3.1737,0.12883,0.13874,0,0,0
275.62,0.82366,3.1807,0.13025,0.14023,0,0,0
278.12,0.83259,3.188,0.13164,0.14207,0,0,0
280.62,0.84209,3.195,0.13311,0.14364,0,0,0
283.12,0.85048,3.2023,0.13437,0.14486,0,0,0
285.62,0.86035,3.209,0.13589,0.14643,0,0,0
288.12,0.86935,3.2157,0.13707,0.1482,0,0,0
290.62,0.87848,3.2223,0.13844,0.14982,0,0,0
293.12,0.88788,3.23,0.13996,0.15138,0,0,0
295.62,0.89661,3.2367,0.14113,0.15299,0,0,0
298.12,0.90644,3.2423,0.1425,0.1546,0,0,0
300.62,0.915,3.2493,0.14401,0.15592,0,0,0
303.12,0.92404,3.2563,0.14549,0.15742,0,0,0
305.62,0.93334,3.263,0.14691,0.15916,0,0,0
308.12,0.9423,3.2694,0.14842,0.16077,0,0,0
310.62,0.95187,3.2757,0.14984,0.16214,0,0,0
313.12,0.961,3.2823,0.15139,0.16374,0,0,0
315.62,0.96969,3.2887,0.15295,0.16553,0,0,0
318.12,0.97913,3.2954,0.15425,0.16715,0,0,0
320.62,0.98826,3.3017,0.15571,0.16862,0,0,0
323.12,0.99709,3.308,0.15744,0.17044,0,0,0
325.62,1.0066,3.3143,0.15887,0.17239,0,0,0
328.12,1.0156,3.32,0.16039,0.174,0,0,0
330.62,1.0252,3.326,0.16213,0.17566,0,0,0
333.12,1.0345,3.3323,0.1635,0.17701,0,0,0
335.62,1.0433,3.3387,0.16512,0.1789,0,0,0
338.12,1.0528,3.345,0.16655,0.18041,0,0,0
340.62,1.0616,3.3507,0.16797,0.1819,0,0,0
343.12,1.0709,3.356,0.16961,0.18372,0,0,0
345.62,1.0803,3.3626,0.17105,0.18539,0,0,0
348.12,1.0895,3.368,0.17286,0.18709,0,0,0
350.62,1.099,3.374,0.17442,0.18887,0,0,0
353.12,1.108,3.38,0.17577,0.19059,0,0,0
355.62,1.1174,3.386,0.17777,0.19237,0,0,0
358.12,1.127,3.3913,0.17931,0.19417,0,0,0
360.62,1.1359,3.397,0.18088,0.19599,0,0,0
363.12,1.1454,3.403,0.18242,0.19789,0,0,0
365.62,1.1547,3.4083,0.18416,0.19971,0,0,0
368.12,1.164,3.414,0.18591,0.20133,0,0,0
370.62,1.1732,3.4197,0.18775,0.20338,0,0,0
373.12,1.1826,3.425,0.1892,0.20536,0,0,0
375.62,1.1922,3.4303,0.19081,0.20718,0,0,0
378.12,1.2012,3.4353,0.19255,0.20904,0,0,0
380.62,1.2105,3.441,0.19435,0.21097,0,0,0
383.12,1.22,3.446,0.1962,0.21285,0,0,0
385.62,1.229,3.452,0.19786,0.2148,0,0,0
388.12,1.2381,3.457,0.19962,0.21653,0,0,0
390.62,1.2478,3.4623,0.20127,0.21839,0,0,0
393.12,1.2567,3.467,0.2033,0.22028,0,0,0
395.62,1.2661,3.4726,0.20491,0.22211,0,0,0
398.12,1.2758,3.478,0.20666,0.22399,0,0,0
400.62,1.285,3.4827,0.20863,0.22592,0,0,0
403.12,1.2945,3.4873,0.21094,0.22795,0,0,0
405.62,1.3038,3.493,0.21284,0.2299,0,0,0
408.12,1.3134,3.4977,0.21468,0.2319,0,0,0
410.62,1.3226,3.5027,0.21652,0.23398,0,0,0
413.12,1.3321,3.5073,0.21847,0.23631,0,0,0
415.62,1.3417,3.5123,0.22062,0.23854,0,0,0
418.12,1.3511,3.517,0.22302,0.24046,0,0,0
420.62,1.3608,3.522,0.22484,0.2425,0,0,0
423.12,1.37,3.527,0.22709,0.24465,0,0,0
425.62,1.3798,3.532,0.22896,0.24709,0,0,0
428.12,1.3892,3.536,0.23104,0.2489,0,0,0
430.62,1.3985,3.541,0.23301,0.25126,0,0,0
433.12,1.4085,3.546,0.23503,0.2535,0,0,0
435.62,1.4184,3.551,0.2375,0.25568,0,0,0
438.12,1.4278,3.5547,0.23946,0.25787,0,0,0
440.62,1.4369,3.559,0.24157,0.26061,0,0,0
443.12,1.447,3.5633,0.24368,0.26255,0,0,0
445.62,1.457,3.568,0.24612,0.26467,0,0,0
448.12,1.4665,3.5723,0.24848,0.26752,0,0,0
450.62,1.4761,3.577,0.25057,0.2697,0,0,0
453.12,1.4861,3.581,0.25295,0.27219,0,0,0
455.62,1.4957,3.585,0.25503,0.27469,0,0,0
458.12,1.5056,3.59,0.25768,0.27726,0,0,0
460.62,1.5153,3.594,0.25981,0.27978,0,0,0
463.12,1.5253,3.598,0.26278,0.28249,0,0,0
465.62,1.5353,3.602,0.26487,0.28529,0,0,0
468.12,1.5454,3.6067,0.26747,0.28784,0,0,0
470.62,1.5553,3.6107,0.27019,0.29086,0,0,0
473.12,1.5657,3.6147,0.27259,0.29326,0,0,0
475.62,1.5759,3.6187,0.2753,0.29619,0,0,0
478.12,1.5864,3.6224,0.27795,0.29941,0,0,0
480.62,1.5965,3.627,0.28036,0.30251,0,0,0
483.12,1.6068,3.6307,0.28345,0.30531,0,0,0
485.62,1.6174,3.634,0.28648,0.30852,0,0,0
488.12,1.6277,3.6377,0.28892,0.31162,0,0,0
490.62,1.6381,3.6413,0.29191,0.31489,0,0,0
493.12,1.6486,3.6453,0.29529,0.31792,0,0,0
495.62,1.6592,3.649,0.29781,0.32136,0,0,0
498.12,1.6699,3.6527,0.30109,0.3245,0,0,0
500.62,1.6805,3.6563,0.30397,0.32806,0,0,0
503.12,1.6918,3.6593,0.30731,0.33165,0,0,0
505.62,1.7023,3.6627,0.31064,0.3355,0,0,0
508.12,1.7135,3.666,0.31366,0.33941,0,0,0
510.62,1.7243,3.6687,0.31706,0.3433,0,0,0
513.12,1.7356,3.672,0.32136,0.34739,0,0,0
515.62,1.7469,3.675,0.32469,0.35162,0,0,0
518.12,1.7585,3.6777,0.32825,0.35563,0,0,0
520.62,1.77,3.68,0.33201,0.36009,0,0,0
523.12,1.7816,3.6823,0.33598,0.36453,0,0,0
525.62,1.7936,3.6853,0.34053,0.36923,0,0,0
528.12,1.8056,3.687,0.34458,0.37462,0,0,0
530.62,1.8179,3.689,0.34909,0.37971,0,0,0
533.12,1.8306,3.69,0.35386,0.38518,0,0,0
535.62,1.8428,3.6913,0.35822,0.39113,0,0,0
538.12,1.8561,3.6917,0.36409,0.39708,0,0,0
540.62,1.8698,3.6907,0.36907,0.40435,0,0,0
543.12,1.884,3.687,0.37511,0.41174,0,0,0
545.62,1.8992,3.6777,0.38176,0.42121,0,0,0
548.12,1.9156,3.662,0.38877,0.43202,0,0,0
550.62,1.9355,3.617,0.39774,0.44963,0,0,0