File: lab_data/AA6014-T4_results/DATA/CH_90_1.csv
Time[s],Displacement[mm],Force[kN],AxStrain_1,AxStrain_2,Thickness[mm],OuterWidth[mm],Diameter[mm]
0.64,0,-0.0062871,0,0,1.1149,20.034,5.3023
3.14,0.001814,0.090419,5.8998e-05,6.6998e-05,0,0,0
5.64,0.002812,0.17957,0.00013299,5.3999e-05,0,0,0
8.14,0.003309,0.234,0.00026097,0.00015399,0,0,0
10.64,0.004709,0.31043,0.00019098,0.00012899,0,0,0
13.14,0.005907,0.38386,0.00040292,0.00033594,0,0,0
15.64,0.006761,0.462,0.00047289,0.00028896,0,0,0
18.14,0.007886,0.53785,0.00049388,0.00045989,0,0,0
20.64,0.008846,0.61915,0.00060382,0.00041291,0,0,0
23.14,0.011411,0.70057,0.00075172,0.00058783,0,0,0
25.64,0.012677,0.78185,0.00078169,0.0007787,0,0,0
28.14,0.013513,0.86486,0.00071175,0.00068776,0,0,0
30.64,0.014715,0.94429,0.00092257,0.00088561,0,0,0
33.14,0.017115,1.0276,0.00096953,0.0010205,0,0,0
35.64,0.019056,1.1059,0.0012013,0.0011443,0,0,0
38.14,0.02016,1.187,0.0013521,0.0012512,0,0,0
40.64,0.021305,1.2647,0.0015368,0.0014999,0,0,0
43.14,0.023047,1.3429,0.0016097,0.0016207,0,0,0
45.64,0.025528,1.4206,0.002012,0.0019721,0,0,0
48.14,0.027093,1.4951,0.0022804,0.002454,0,0,0
50.64,0.028593,1.5716,0.0025478,0.002451,0,0,0
53.14,0.030363,1.644,0.002843,0.0027492,0,0,0
55.64,0.032595,1.7169,0.0034152,0.0032407,0,0,0
58.14,0.034845,1.7869,0.0043216,0.0041145,0,0,0
60.64,0.037195,1.857,0.0043047,0.0044381,0,0,0
63.14,0.040877,1.9207,0.0049995,0.0051239,0,0,0
65.64,0.045245,1.9763,0.0064621,0.0065118,0,0,0
68.14,0.051573,2.0194,0.0086148,0.0087377,0,0,0
70.64,0.06041,2.0584,0.0098384,0.010337,0,0,0
73.14,0.068957,2.0963,0.011294,0.011722,0,0,0
75.64,0.077907,2.1306,0.013396,0.014263,0,0,0
78.14,0.088026,2.1644,0.015894,0.016624,0,0,0
80.64,0.097876,2.195,0.017354,0.018431,0,0,0
83.14,0.10805,2.226,0.018729,0.020058,0,0,0
85.64,0.11806,2.2547,0.020739,0.0223,0,0,0
88.14,0.12838,2.2833,0.022782,0.0245,0,0,0
90.64,0.13935,2.311,0.024695,0.026242,0,0,0
93.14,0.14959,2.3377,0.02653,0.028254,0,0,0
95.64,0.16115,2.3636,0.028183,0.030445,0,0,0
98.14,0.17227,2.3883,0.030182,0.032394,0,0,0
100.64,0.18316,2.413,0.031861,0.034351,0,0,0
103.14,0.19466,2.436,0.033672,0.036616,0,0,0
105.64,0.2058,2.4597,0.035426,0.038437,0,0,0
108.14,0.21749,2.481,0.03733,0.040432,0,0,0
110.64,0.22865,2.5033,0.039326,0.042544,0,0,0
113.14,0.23938,2.524,0.040774,0.044142,0,0,0
115.64,0.25063,2.544,0.042527,0.046244,0,0,0
118.14,0.26089,2.5636,0.044391,0.048172,0,0,0
120.64,0.27198,2.582,0.045996,0.049962,0,0,0
123.14,0.28127,2.598,0.047373,0.051462,0,0,0
125.64,0.28998,2.6123,0.048653,0.05296,0,0,0
128.14,0.29823,2.626,0.050091,0.054359,0,0,0
130.64,0.30586,2.639,0.051112,0.055439,0,0,0
133.14,0.31421,2.6527,0.052165,0.056519,0,0,0
135.64,0.3229,2.6657,0.053439,0.058041,0,0,0
138.14,0.33152,2.6787,0.054774,0.059307,0,0,0
140.64,0.3415,2.6913,0.056077,0.060635,0,0,0
143.14,0.35057,2.703,0.057315,0.06193,0,0,0
145.64,0.36,2.7157,0.058581,0.063538,0,0,0
148.14,0.37008,2.7277,0.059785,0.064828,0,0,0
150.64,0.37943,2.74,0.06108,0.066181,0,0,0
153.14,0.38938,2.752,0.062311,0.067374,0,0,0
155.64,0.39883,2.764,0.063572,0.068911,0,0,0
158.14,0.40779,2.7757,0.064895,0.070226,0,0,0
160.64,0.41774,2.7867,0.066246,0.071508,0,0,0
163.14,0.42646,2.7983,0.067158,0.072664,0,0,0
165.64,0.43595,2.809,0.068538,0.074006,0,0,0
168.14,0.44555,2.82,0.069853,0.075564,0,0,0
170.64,0.45421,2.8303,0.071043,0.076808,0,0,0
173.14,0.46431,2.841,0.072168,0.078175,0,0,0
175.64,0.47362,2.8513,0.073323,0.079354,0,0,0
178.14,0.48273,2.861,0.074726,0.080593,0,0,0
180.64,0.49238,2.8717,0.075971,0.082141,0,0,0
183.14,0.50113,2.881,0.077029,0.083007,0,0,0
185.64,0.51068,2.891,0.078146,0.084335,0,0,0
188.14,0.51967,2.9007,0.079109,0.085753,0,0,0
190.64,0.52829,2.9104,0.080566,0.087169,0,0,0
193.14,0.53786,2.9193,0.08168,0.088276,0,0,0
195.64,0.54632,2.929,0.08267,0.089628,0,0,0
198.14,0.55552,2.938,0.083782,0.090671,0,0,0
200.64,0.56495,2.947,0.084954,0.09208,0,0,0
203.14,0.57381,2.9553,0.086157,0.093274,0,0,0
205.64,0.58342,2.9647,0.087234,0.094526,0,0,0
208.14,0.59198,2.9737,0.088248,0.096113,0,0,0
210.64,0.60044,2.9823,0.089416,0.096906,0,0,0
213.14,0.60991,2.991,0.090674,0.098216,0,0,0
215.64,0.6184,2.9993,0.091869,0.099645,0,0,0
218.14,0.62777,3.008,0.093063,0.10095,0,0,0
220.64,0.63713,3.016,0.094041,0.10216,0,0,0
223.14,0.64586,3.025,0.095447,0.10332,0,0,0
225.64,0.65573,3.0327,0.096575,0.10477,0,0,0
228.14,0.66396,3.041,0.097946,0.10613,0,0,0
230.64,0.67302,3.05,0.09892,0.10715,0,0,0
233.14,0.68266,3.0577,0.1002,0.10863,0,0,0
235.64,0.69115,3.0657,0.10141,0.10995,0,0,0
238.14,0.70072,3.0733,0.10262,0.11122,0,0,0
240.64,0.70968,3.0817,0.10392,0.11257,0,0,0
243.14,0.71861,3.09,0.10516,0.11392,0,0,0
245.64,0.72825,3.0973,0.10616,0.1152,0,0,0
248.14,0.73691,3.1053,0.10758,0.11664,0,0,0
250.64,0.74604,3.113,0.109,0.11801,0,0,0
253.14,0.75541,3.1207,0.11011,0.11938,0,0,0
255.64,0.7638,3.1283,0.11137,0.12057,0,0,0
258.14,0.77327,3.136,0.11236,0.12188,0,0,0
260.64,0.78183,3.143,0.11383,0.12349,0,0,0
263.14,0.79099,3.1503,0.11542,0.12494,0,0,0
265.64,0.80029,3.1583,0.11649,0.12627,0,0,0
268.14,0.80902,3.166,0.11763,0.12751,0,0,0
270.64,0.81872,3.173,0.11873,0.12908,0,0,0
273.14,0.82782,3.18,0.12031,0.1307,0,0,0
275.64,0.83632,3.1877,0.12177,0.13203,0,0,0
278.14,0.84578,3.1943,0.12281,0.1335,0,0,0
280.64,0.85478,3.2017,0.12394,0.13473,0,0,0
283.14,0.86395,3.2087,0.12554,0.13643,0,0,0
285.64,0.87331,3.2157,0.12693,0.13798,0,0,0
288.14,0.88197,3.2227,0.12823,0.13944,0,0,0
290.64,0.89151,3.2293,0.12938,0.14081,0,0,0
293.14,0.90051,3.2367,0.13073,0.14227,0,0,0
295.64,0.90947,3.243,0.13235,0.14407,0,0,0
298.14,0.91924,3.25,0.13373,0.14553,0,0,0
300.64,0.92766,3.257,0.1352,0.14698,0,0,0
303.14,0.937,3.2633,0.13661,0.14845,0,0,0
305.64,0.94593,3.27,0.13763,0.14987,0,0,0
308.14,0.95469,3.2767,0.13936,0.15149,0,0,0
310.64,0.96412,3.2837,0.14055,0.15293,0,0,0
313.14,0.97309,3.29,0.14222,0.15434,0,0,0
315.64,0.98229,3.2967,0.14347,0.15621,0,0,0
318.14,0.99155,3.303,0.14501,0.15779,0,0,0
320.64,1.0006,3.309,0.14643,0.15916,0,0,0
323.14,1.0096,3.3153,0.14834,0.16094,0,0,0
325.64,1.0189,3.322,0.14959,0.16271,0,0,0
328.14,1.0274,3.328,0.15063,0.16427,0,0,0
330.64,1.037,3.334,0.15236,0.16575,0,0,0
333.14,1.0461,3.3403,0.15394,0.16726,0,0,0
335.64,1.0549,3.3463,0.15564,0.16896,0,0,0
338.14,1.0642,3.3527,0.15687,0.17063,0,0,0
340.64,1.0727,3.3587,0.15831,0.17242,0,0,0
343.14,1.0821,3.365,0.16002,0.17391,0,0,0
345.64,1.0911,3.371,0.16171,0.1756,0,0,0
348.14,1.1001,3.3763,0.16322,0.17735,0,0,0
350.64,1.1093,3.3823,0.16473,0.17906,0,0,0
353.14,1.1182,3.3883,0.16653,0.18103,0,0,0
355.64,1.1275,3.3937,0.16812,0.18248,0,0,0
358.14,1.1364,3.399,0.16959,0.18405,0,0,0
360.64,1.1455,3.405,0.17135,0.18608,0,0,0
363.14,1.1549,3.411,0.17304,0.18778,0,0,0
365.64,1.1636,3.416,0.17471,0.18948,0,0,0
368.14,1.1723,3.4216,0.17626,0.19109,0,0,0
370.64,1.1816,3.427,0.17797,0.19294,0,0,0
373.14,1.1901,3.4327,0.17966,0.19477,0,0,0
375.64,1.1995,3.4377,0.18128,0.19645,0,0,0
378.14,1.2084,3.443,0.18305,0.19827,0,0,0
380.64,1.2173,3.4484,0.18455,0.20034,0,0,0
383.14,1.2264,3.454,0.18626,0.20187,0,0,0
385.64,1.2351,3.4593,0.18832,0.20349,0,0,0
388.14,1.2441,3.465,0.19018,0.20582,0,0,0
390.64,1.2534,3.4693,0.19195,0.20743,0,0,0
393.14,1.2622,3.474,0.1937,0.20936,0,0,0
395.64,1.2714,3.48,0.19547,0.21137,0,0,0
398.14,1.2805,3.485,0.19729,0.21365,0,0,0
400.64,1.2899,3.49,0.19935,0.21552,0,0,0
403.14,1.2993,3.495,0.2013,0.2175,0,0,0
405.64,1.3082,3.4997,0.20303,0.21952,0,0,0
408.14,1.3175,3.5044,0.205,0.22149,0,0,0
410.64,1.3269,3.5097,0.20697,0.22388,0,0,0
413.14,1.3361,3.5144,0.20899,0.22586,0,0,0
415.64,1.3454,3.519,0.21122,0.22832,0,0,0
418.14,1.3544,3.524,0.21306,0.23051,0,0,0
420.64,1.3638,3.529,0.21491,0.23278,0,0,0
423.14,1.3728,3.5337,0.21713,0.23469,0,0,0
425.64,1.3823,3.538,0.21926,0.23694,0,0,0
428.14,1.3918,3.543,0.22131,0.23938,0,0,0
430.64,1.401,3.548,0.22343,0.24154,0,0,0
433.14,1.4106,3.552,0.22598,0.24373,0,0,0
435.64,1.4204,3.556,0.22777,0.24643,0,0,0
438.14,1.4296,3.561,0.23004,0.24861,0,0,0
440.64,1.4395,3.565,0.23257,0.25146,0,0,0
443.14,1.4489,3.5693,0.23507,0.25383,0,0,0
445.64,1.4585,3.574,0.23714,0.25628,0,0,0
448.14,1.4686,3.5787,0.23984,0.25843,0,0,0
450.64,1.4781,3.5827,0.24237,0.26133,0,0,0
453.14,1.4881,3.587,0.24461,0.26412,0,0,0
455.64,1.4973,3.5913,0.24765,0.26657,0,0,0
458.14,1.5074,3.596,0.2504,0.26965,0,0,0
460.64,1.5173,3.599,0.25288,0.27256,0,0,0
463.14,1.5272,3.604,0.25572,0.27581,0,0,0
465.64,1.5374,3.608,0.25839,0.27888,0,0,0
468.14,1.5478,3.612,0.26129,0.28167,0,0,0
470.64,1.5575,3.616,0.26459,0.28481,0,0,0
473.14,1.5681,3.62,0.26784,0.28849,0,0,0
475.64,1.5787,3.6236,0.27109,0.29168,0,0,0
478.14,1.5893,3.6273,0.27424,0.29519,0,0,0
480.64,1.6,3.631,0.27745,0.29868,0,0,0
483.14,1.6102,3.6347,0.28082,0.30223,0,0,0
485.64,1.6211,3.638,0.28437,0.30553,0,0,0
488.14,1.6316,3.6417,0.2878,0.30953,0,0,0
490.64,1.6426,3.6457,0.29172,0.31327,0,0,0
493.14,1.6536,3.6483,0.29532,0.31718,0,0,0
495.64,1.6646,3.6517,0.29894,0.32104,0,0,0
498.14,1.6757,3.655,0.30311,0.32546,0,0,0
500.64,1.6871,3.6577,0.30697,0.32965,0,0,0
503.14,1.6984,3.6607,0.31114,0.33374,0,0,0
505.64,1.7102,3.6633,0.31568,0.33835,0,0,0
508.14,1.7219,3.666,0.32025,0.34303,0,0,0
510.64,1.7341,3.6677,0.32516,0.34795,0,0,0
513.14,1.746,3.6703,0.32993,0.35291,0,0,0
515.64,1.7583,3.6727,0.33484,0.35865,0,0,0
518.14,1.7709,3.674,0.33999,0.36389,0,0,0
520.64,1.7836,3.6753,0.34561,0.36955,0,0,0
523.14,1.7966,3.676,0.35161,0.37498,0,0,0
525.64,1.8101,3.677,0.35817,0.38113,0,0,0
528.14,1.8233,3.677,0.36412,0.38737,0,0,0
530.64,1.837,3.677,0.37134,0.39371,0,0,0
533.14,1.8515,3.6757,0.37783,0.39373,0,0,0
535.64,1.8657,3.6737,0.38526,0.40012,0,0,0
538.14,1.8807,3.6713,0.39256,0.40827,0,0,0
540.64,1.8957,3.668,0.40072,0.41468,0,0,0
543.14,1.9116,3.663,0.40947,0.42386,0,0,0
545.64,1.9275,3.6553,0.41883,0.43181,0,0,0
548.14,1.9444,3.6437,0.42883,0.44131,0,0,0
550.64,1.9625,3.6147,0.44163,0.45124,0,0,0
552.14,1.9745,3.5919,0.45038,0.45876,0,0,0