File: lab_data/AA6014-T4_results/DATA/NT20_45_2.csv
Time[s],Displacement[mm],Force[kN],AxStrain_1,AxStrain_2,Thickness[mm],OuterWidth[mm],InnerWidth[mm]
0.59,0,-0.0058493,0,0,1.1178,20,9.9524
3.09,0.001816,0.086282,9.4995e-05,0,0,0,0
5.59,0.003234,0.17071,0.00026596,0,0,0,0
8.09,0.004167,0.235,0.00023497,0,0,0,0
10.59,0.005999,0.30528,0.00024497,0,0,0,0
13.09,0.007694,0.37814,0.00039492,0,0,0,0
15.59,0.009017,0.45386,0.00035594,0,0,0,0
18.09,0.010357,0.528,0.00058083,0,0,0,0
20.59,0.011888,0.60685,0.00057084,0,0,0,0
23.09,0.014517,0.68257,0.0006348,0,0,0,0
25.59,0.016655,0.763,0.00071774,0,0,0,0
28.09,0.018109,0.84029,0.00079169,0,0,0,0
30.59,0.019855,0.91886,0.00069176,0,0,0,0
33.09,0.022362,0.99486,0.0010574,0,0,0,0
35.59,0.025011,1.0709,0.0010734,0,0,0,0
38.09,0.026676,1.145,0.0012213,0,0,0,0
40.59,0.028969,1.2157,0.0011743,0,0,0,0
43.09,0.032642,1.2827,0.0015528,0,0,0,0
45.59,0.038887,1.3309,0.0027193,0,0,0,0
48.09,0.046984,1.37,0.0041514,0,0,0,0
50.59,0.057284,1.4037,0.0050433,0,0,0,0
53.09,0.067453,1.4346,0.0059383,0,0,0,0
55.59,0.07832,1.4627,0.007205,0,0,0,0
58.09,0.089896,1.488,0.0085047,0,0,0,0
60.59,0.101,1.512,0.0089736,0,0,0,0
63.09,0.11375,1.5343,0.0098622,0,0,0,0
65.59,0.12531,1.556,0.011324,0,0,0,0
68.09,0.13795,1.5764,0.012389,0,0,0,0
70.59,0.1501,1.5964,0.012935,0,0,0,0
73.09,0.16248,1.6153,0.013681,0,0,0,0
75.59,0.17555,1.6333,0.014975,0,0,0,0
78.09,0.1881,1.6514,0.016139,0,0,0,0
80.59,0.2016,1.6687,0.016512,0,0,0,0
83.09,0.21393,1.6857,0.017443,0,0,0,0
85.59,0.22782,1.702,0.018534,0,0,0,0
88.09,0.24091,1.7173,0.019611,0,0,0,0
90.59,0.25477,1.7334,0.020198,0,0,0,0
93.09,0.2681,1.7484,0.021006,0,0,0,0
95.59,0.2817,1.764,0.022157,0,0,0,0
98.09,0.29605,1.7783,0.023125,0,0,0,0
100.59,0.30935,1.7927,0.02383,0,0,0,0
103.09,0.32357,1.8067,0.024639,0,0,0,0
105.59,0.33665,1.8203,0.02556,0,0,0,0
108.09,0.35109,1.834,0.026338,0,0,0,0
110.59,0.36478,1.8466,0.027195,0,0,0,0
113.09,0.37918,1.8597,0.02804,0,0,0,0
115.59,0.39284,1.8723,0.029052,0,0,0,0
118.09,0.40677,1.885,0.029834,0,0,0,0
120.59,0.42122,1.897,0.030713,0,0,0,0
123.09,0.4346,1.9087,0.031463,0,0,0,0
125.59,0.44912,1.9207,0.032405,0,0,0,0
128.09,0.46285,1.932,0.03312,0,0,0,0
130.59,0.47743,1.9436,0.033802,0,0,0,0
133.09,0.49119,1.9553,0.034938,0,0,0,0
135.59,0.50592,1.966,0.035813,0,0,0,0
138.09,0.51956,1.977,0.036589,0,0,0,0
140.59,0.53444,1.988,0.03714,0,0,0,0
143.09,0.54815,1.999,0.038304,0,0,0,0
145.59,0.56273,2.0087,0.039144,0,0,0,0
148.09,0.57714,2.019,0.039919,0,0,0,0
150.59,0.59128,2.0293,0.040789,0,0,0,0
153.09,0.60612,2.039,0.041659,0,0,0,0
155.59,0.62036,2.049,0.042625,0,0,0,0
158.09,0.63513,2.059,0.043332,0,0,0,0
160.59,0.64925,2.0684,0.044265,0,0,0,0
163.09,0.6642,2.078,0.045003,0,0,0,0
165.59,0.67824,2.0873,0.046029,0,0,0,0
168.09,0.69323,2.0967,0.046863,0,0,0,0
170.59,0.70735,2.1057,0.047664,0,0,0,0
173.09,0.72212,2.1147,0.048655,0,0,0,0
175.59,0.73647,2.1233,0.049422,0,0,0,0
178.09,0.75117,2.132,0.050413,0,0,0,0
180.59,0.76567,2.1404,0.051338,0,0,0,0
183.09,0.7798,2.149,0.052167,0,0,0,0
185.59,0.79484,2.1573,0.053058,0,0,0,0
188.09,0.80867,2.1653,0.054078,0,0,0,0
190.59,0.8236,2.1737,0.054873,0,0,0,0
193.09,0.83772,2.1813,0.055666,0,0,0,0
195.59,0.85263,2.1893,0.056651,0,0,0,0
198.09,0.86662,2.1967,0.057634,0,0,0,0
200.59,0.88151,2.205,0.058521,0,0,0,0
203.09,0.89561,2.2123,0.059312,0,0,0,0
205.59,0.91051,2.22,0.060418,0,0,0,0
208.09,0.92474,2.227,0.061334,0,0,0,0
210.59,0.93905,2.2347,0.062219,0,0,0,0
213.09,0.95384,2.2417,0.063133,0,0,0,0
215.59,0.96825,2.249,0.064078,0,0,0,0
218.09,0.98301,2.2557,0.064929,0,0,0,0
220.59,0.99724,2.2627,0.06584,0,0,0,0
223.09,1.0122,2.2693,0.066689,0,0,0,0
225.59,1.026,2.2763,0.067756,0,0,0,0
228.09,1.0414,2.283,0.068885,0,0,0,0
230.59,1.0551,2.2893,0.069543,0,0,0,0
233.09,1.0702,2.296,0.070607,0,0,0,0
235.59,1.0843,2.3023,0.07167,0,0,0,0
238.09,1.0995,2.3083,0.07267,0,0,0,0
240.59,1.1136,2.315,0.073513,0,0,0,0
243.09,1.1288,2.321,0.074511,0,0,0,0
245.59,1.1434,2.327,0.075601,0,0,0,0
248.09,1.1579,2.333,0.076441,0,0,0,0
250.59,1.1729,2.3387,0.077404,0,0,0,0
253.09,1.1871,2.345,0.078554,0,0,0,0
255.59,1.2019,2.35,0.079453,0,0,0,0
258.09,1.2161,2.356,0.080414,0,0,0,0
260.59,1.231,2.3617,0.081435,0,0,0,0
263.09,1.245,2.367,0.082611,0,0,0,0
265.59,1.2601,2.372,0.083662,0,0,0,0
268.09,1.2739,2.378,0.084619,0,0,0,0
270.59,1.2892,2.384,0.085821,0,0,0,0
273.09,1.3032,2.388,0.086838,0,0,0,0
275.59,1.3181,2.3937,0.087914,0,0,0,0
278.09,1.3325,2.3987,0.089051,0,0,0,0
280.59,1.347,2.404,0.090034,0,0,0,0
283.09,1.3617,2.409,0.091076,0,0,0,0
285.59,1.3764,2.414,0.092301,0,0,0,0
288.09,1.3911,2.419,0.093373,0,0,0,0
290.59,1.4054,2.423,0.094351,0,0,0,0
293.09,1.4205,2.428,0.095633,0,0,0,0
295.59,1.4345,2.433,0.096548,0,0,0,0
298.09,1.4499,2.4377,0.09801,0,0,0,0
300.59,1.4641,2.442,0.099076,0,0,0,0
303.09,1.4792,2.446,0.10011,0,0,0,0
305.59,1.4933,2.451,0.10123,0,0,0,0
308.09,1.5083,2.4553,0.10263,0,0,0,0
310.59,1.5227,2.46,0.10372,0,0,0,0
313.09,1.5375,2.464,0.10483,0,0,0,0
315.59,1.552,2.4684,0.10595,0,0,0,0
318.09,1.5671,2.4727,0.10731,0,0,0,0
320.59,1.582,2.4763,0.10852,0,0,0,0
323.09,1.5967,2.4803,0.10978,0,0,0,0
325.59,1.6118,2.4843,0.11083,0,0,0,0
328.09,1.6264,2.488,0.11233,0,0,0,0
330.59,1.6417,2.492,0.11368,0,0,0,0
333.09,1.6561,2.496,0.115,0,0,0,0
335.59,1.6716,2.5,0.11614,0,0,0,0
338.09,1.6857,2.5037,0.1176,0,0,0,0
340.59,1.7013,2.5073,0.11888,0,0,0,0
343.09,1.7156,2.5107,0.12005,0,0,0,0
345.59,1.731,2.5143,0.12139,0,0,0,0
348.09,1.7455,2.518,0.12257,0,0,0,0
350.59,1.7608,2.5213,0.12409,0,0,0,0
353.09,1.7752,2.5247,0.12554,0,0,0,0
355.59,1.7906,2.528,0.12699,0,0,0,0
358.09,1.8055,2.5313,0.12829,0,0,0,0
360.59,1.821,2.5343,0.12991,0,0,0,0
363.09,1.8357,2.5377,0.13133,0,0,0,0
365.59,1.8508,2.541,0.13286,0,0,0,0
368.09,1.8658,2.5437,0.13427,0,0,0,0
370.59,1.8808,2.5467,0.13579,0,0,0,0
373.09,1.8961,2.55,0.13731,0,0,0,0
375.59,1.9112,2.5527,0.13886,0,0,0,0
378.09,1.9264,2.5557,0.14041,0,0,0,0
380.59,1.941,2.5583,0.1419,0,0,0,0
383.09,1.9565,2.5617,0.14347,0,0,0,0
385.59,1.9709,2.5637,0.14501,0,0,0,0
388.09,1.9865,2.5667,0.14664,0,0,0,0
390.59,2.0011,2.5693,0.1484,0,0,0,0
393.09,2.0169,2.5717,0.15017,0,0,0,0
395.59,2.0318,2.5737,0.15193,0,0,0,0
398.09,2.0473,2.5763,0.15374,0,0,0,0
400.59,2.0624,2.579,0.15558,0,0,0,0
403.09,2.0782,2.5813,0.15745,0,0,0,0
405.59,2.0935,2.5833,0.15931,0,0,0,0
408.09,2.109,2.5857,0.16117,0,0,0,0
410.59,2.1246,2.5883,0.16305,0,0,0,0
413.09,2.1405,2.59,0.16491,0,0,0,0
415.59,2.1557,2.592,0.16667,0,0,0,0
418.09,2.1716,2.5943,0.16874,0,0,0,0
420.59,2.1871,2.596,0.17098,0,0,0,0
423.09,2.2023,2.5983,0.17282,0,0,0,0
425.59,2.2181,2.6,0.17482,0,0,0,0
428.09,2.2338,2.6017,0.17707,0,0,0,0
430.59,2.2496,2.6033,0.17957,0,0,0,0
433.09,2.2649,2.6053,0.18184,0,0,0,0
435.59,2.281,2.607,0.18397,0,0,0,0
438.09,2.2965,2.6083,0.18628,0,0,0,0
440.59,2.3128,2.6093,0.1889,0,0,0,0
443.09,2.3282,2.6113,0.19137,0,0,0,0
445.59,2.3445,2.6123,0.19403,0,0,0,0
448.09,2.3598,2.6133,0.19637,0,0,0,0
450.59,2.376,2.615,0.19883,0,0,0,0
453.09,2.3918,2.616,0.2016,0,0,0,0
455.59,2.4081,2.617,0.20448,0,0,0,0
458.09,2.4234,2.618,0.20708,0,0,0,0
460.59,2.4399,2.619,0.21005,0,0,0,0
463.09,2.4554,2.62,0.21306,0,0,0,0
465.59,2.4717,2.6203,0.21604,0,0,0,0
468.09,2.4874,2.6213,0.2192,0,0,0,0
470.59,2.504,2.622,0.22275,0,0,0,0
473.09,2.5196,2.622,0.22613,0,0,0,0
475.59,2.5364,2.6227,0.22985,0,0,0,0
478.09,2.5524,2.623,0.23334,0,0,0,0
480.59,2.5686,2.623,0.23729,0,0,0,0
483.09,2.5848,2.623,0.24115,0,0,0,0
485.59,2.6017,2.623,0.24518,0,0,0,0
488.09,2.6175,2.622,0.24955,0,0,0,0
490.59,2.6342,2.622,0.25373,0,0,0,0
493.09,2.6506,2.6213,0.25822,0,0,0,0
495.59,2.6672,2.6207,0.26291,0,0,0,0
498.09,2.6836,2.6197,0.26759,0,0,0,0
500.58,2.7004,2.6183,0.273,0,0,0,0
503.08,2.7169,2.617,0.27827,0,0,0,0
505.58,2.7337,2.615,0.28372,0,0,0,0
508.09,2.7503,2.6133,0.28942,0,0,0,0
510.59,2.767,2.611,0.29531,0,0,0,0
513.09,2.7837,2.6083,0.30169,0,0,0,0
515.59,2.8007,2.605,0.3077,0,0,0,0
518.09,2.8172,2.6013,0.31457,0,0,0,0
520.59,2.8343,2.5977,0.32104,0,0,0,0
523.09,2.8511,2.593,0.32799,0,0,0,0
525.59,2.8684,2.587,0.33523,0,0,0,0
528.08,2.8851,2.5813,0.34263,0,0,0,0
530.59,2.9024,2.574,0.35014,0,0,0,0
533.09,2.9195,2.566,0.35812,0,0,0,0
535.59,2.9367,2.5567,0.36592,0,0,0,0
538.09,2.9541,2.5457,0.37403,0,0,0,0
540.59,2.9719,2.5333,0.38186,0,0,0,0
543.09,2.9892,2.5197,0.39027,0,0,0,0
545.59,3.0075,2.504,0.39848,0,0,0,0
548.09,3.0255,2.4856,0.40706,0,0,0,0
550.59,3.0442,2.4657,0.41626,0,0,0,0
553.09,3.0625,2.4427,0.42527,0,0,0,0
555.59,3.0817,2.4167,0.4338,0,0,0,0
558.08,3.1004,2.3874,0.44333,0,0,0,0
560.59,3.1203,2.3526,0.45289,0,0,0,0
562.08,3.1322,2.3274,0.45865,0,0,0,0