File: lab_data/AA6014-T4_results/DATA/NT20_90_2.csv
Time[s],Displacement[mm],Force[kN],AxStrain_1,AxStrain_2,Thickness[mm],OuterWidth[mm],InnerWidth[mm]
0.6,0,-0.004886,0,0,1.1134,20,10.095
3.1,0.002422,0.086278,0.00016999,0,0,0,0
5.6,0.003701,0.16943,0.00017898,0,0,0,0
8.1,0.004929,0.23857,0.00013099,0,0,0,0
10.6,0.006512,0.307,0.00014799,0,0,0,0
13.1,0.008846,0.37843,0.00046789,0,0,0,0
15.6,0.010263,0.45214,0.00041591,0,0,0,0
18.1,0.0117,0.52785,0.00033894,0,0,0,0
20.6,0.01356,0.60471,0.00039992,0,0,0,0
23.1,0.016021,0.682,0.00047289,0,0,0,0
25.6,0.018414,0.76185,0.00071774,0,0,0,0
28.1,0.019861,0.83657,0.00072174,0,0,0,0
30.6,0.021164,0.91529,0.00070175,0,0,0,0
33.1,0.024407,0.991,0.0008956,0,0,0,0
35.6,0.026656,1.0661,0.00092657,0,0,0,0
38.1,0.028946,1.1404,0.0012143,0,0,0,0
40.6,0.031085,1.2121,0.0011543,0,0,0,0
43.1,0.03468,1.2809,0.001416,0,0,0,0
45.6,0.039072,1.3384,0.0023373,0,0,0,0
48.1,0.047401,1.3751,0.004241,0,0,0,0
50.6,0.058007,1.4083,0.0049696,0,0,0,0
53.1,0.067746,1.44,0.0059711,0,0,0,0
55.6,0.078822,1.468,0.0076626,0,0,0,0
58.1,0.090475,1.4936,0.0091906,0,0,0,0
60.6,0.1021,1.5177,0.0095126,0,0,0,0
63.1,0.11482,1.5407,0.010258,0,0,0,0
65.6,0.12639,1.562,0.011523,0,0,0,0
68.1,0.13899,1.5827,0.013036,0,0,0,0
70.6,0.15103,1.603,0.013349,0,0,0,0
73.1,0.16342,1.622,0.013896,0,0,0,0
75.6,0.177,1.6407,0.015058,0,0,0,0
78.1,0.18881,1.6583,0.016519,0,0,0,0
80.6,0.2025,1.676,0.017152,0,0,0,0
83.1,0.21501,1.6934,0.017635,0,0,0,0
85.6,0.229,1.7097,0.018927,0,0,0,0
88.1,0.24215,1.726,0.01991,0,0,0,0
90.6,0.25626,1.7417,0.020552,0,0,0,0
93.1,0.26963,1.757,0.021128,0,0,0,0
95.6,0.28289,1.7723,0.022264,0,0,0,0
98.1,0.29706,1.7877,0.023308,0,0,0,0
100.6,0.3106,1.802,0.023842,0,0,0,0
103.1,0.32517,1.816,0.024649,0,0,0,0
105.6,0.33875,1.83,0.025402,0,0,0,0
108.1,0.35297,1.8437,0.026469,0,0,0,0
110.6,0.36619,1.857,0.027151,0,0,0,0
113.1,0.38056,1.8697,0.027647,0,0,0,0
115.6,0.39446,1.8827,0.02879,0,0,0,0
118.1,0.40772,1.8953,0.029573,0,0,0,0
120.6,0.42263,1.9077,0.030258,0,0,0,0
123.1,0.43592,1.92,0.031006,0,0,0,0
125.6,0.45074,1.9317,0.032047,0,0,0,0
128.1,0.46422,1.9433,0.032827,0,0,0,0
130.6,0.47925,1.955,0.033574,0,0,0,0
133.1,0.49253,1.9663,0.034353,0,0,0,0
135.6,0.50757,1.9777,0.035358,0,0,0,0
138.1,0.52095,1.9887,0.036103,0,0,0,0
140.6,0.53552,1.9997,0.036977,0,0,0,0
143.1,0.54954,2.011,0.037624,0,0,0,0
145.6,0.56401,2.0207,0.038529,0,0,0,0
148.1,0.57809,2.031,0.039336,0,0,0,0
150.6,0.59207,2.042,0.040111,0,0,0,0
153.1,0.60649,2.052,0.040981,0,0,0,0
155.6,0.62021,2.062,0.041593,0,0,0,0
158.1,0.6353,2.0713,0.042624,0,0,0,0
160.6,0.64836,2.081,0.043652,0,0,0,0
163.1,0.66422,2.0906,0.044327,0,0,0,0
165.6,0.67748,2.1003,0.04513,0,0,0,0
168.1,0.69256,2.109,0.046156,0,0,0,0
170.6,0.70647,2.1187,0.046893,0,0,0,0
173.1,0.72112,2.1277,0.047438,0,0,0,0
175.6,0.73507,2.1364,0.04843,0,0,0,0
178.1,0.7497,2.1453,0.049389,0,0,0,0
180.6,0.76415,2.154,0.050156,0,0,0,0
183.1,0.778,2.162,0.050986,0,0,0,0
185.6,0.79256,2.171,0.051624,0,0,0,0
188.1,0.80643,2.1787,0.052771,0,0,0,0
190.6,0.82131,2.187,0.053503,0,0,0,0
193.1,0.83461,2.1953,0.054426,0,0,0,0
195.6,0.84974,2.2027,0.055061,0,0,0,0
198.1,0.86308,2.2103,0.056078,0,0,0,0
200.6,0.87756,2.2183,0.056871,0,0,0,0
203.1,0.8915,2.2257,0.057505,0,0,0,0
205.6,0.9057,2.233,0.058425,0,0,0,0
208.1,0.91996,2.24,0.059468,0,0,0,0
210.6,0.93368,2.248,0.060069,0,0,0,0
213.1,0.94831,2.2547,0.06067,0,0,0,0
215.6,0.96183,2.2617,0.061712,0,0,0,0
218.1,0.97673,2.2687,0.062626,0,0,0,0
220.6,0.99025,2.275,0.063541,0,0,0,0
223.1,1.0051,2.282,0.064234,0,0,0,0
225.6,1.0184,2.2887,0.065021,0,0,0,0
228.1,1.0332,2.2957,0.065995,0,0,0,0
230.6,1.0471,2.302,0.066938,0,0,0,0
233.1,1.0614,2.3083,0.067565,0,0,0,0
235.6,1.0754,2.3147,0.068569,0,0,0,0
238.1,1.0895,2.321,0.069541,0,0,0,0
240.6,1.1042,2.327,0.070354,0,0,0,0
243.1,1.1177,2.3337,0.071356,0,0,0,0
245.6,1.1327,2.34,0.072355,0,0,0,0
248.1,1.146,2.346,0.073323,0,0,0,0
250.6,1.161,2.3517,0.074228,0,0,0,0
253.1,1.1745,2.3573,0.074913,0,0,0,0
255.6,1.1889,2.363,0.076003,0,0,0,0
258.1,1.2025,2.369,0.076873,0,0,0,0
260.6,1.2167,2.3743,0.077713,0,0,0,0
263.1,1.2307,2.3807,0.078612,0,0,0,0
265.6,1.2446,2.385,0.079823,0,0,0,0
268.1,1.2588,2.391,0.08066,0,0,0,0
270.6,1.2725,2.397,0.081774,0,0,0,0
273.1,1.2871,2.402,0.082578,0,0,0,0
275.6,1.3006,2.407,0.083473,0,0,0,0
278.1,1.3153,2.4127,0.084802,0,0,0,0
280.6,1.3288,2.418,0.085664,0,0,0,0
283.1,1.3435,2.423,0.086619,0,0,0,0
285.6,1.3575,2.428,0.087819,0,0,0,0
288.1,1.3721,2.433,0.08868,0,0,0,0
290.6,1.3862,2.438,0.089694,0,0,0,0
293.1,1.4004,2.4427,0.090614,0,0,0,0
295.6,1.4146,2.4477,0.091778,0,0,0,0
298.1,1.4288,2.452,0.092941,0,0,0,0
300.6,1.4434,2.456,0.093797,0,0,0,0
303.1,1.4571,2.4613,0.095081,0,0,0,0
305.6,1.472,2.466,0.095905,0,0,0,0
308.1,1.4857,2.4707,0.097063,0,0,0,0
310.6,1.5008,2.475,0.098159,0,0,0,0
313.1,1.5147,2.4793,0.099254,0,0,0,0
315.6,1.5295,2.484,0.10038,0,0,0,0
318.1,1.5434,2.488,0.10138,0,0,0,0
320.6,1.5584,2.4927,0.10253,0,0,0,0
323.1,1.5725,2.4967,0.10374,0,0,0,0
325.6,1.5871,2.5003,0.1051,0,0,0,0
328.1,1.6015,2.505,0.10601,0,0,0,0
330.6,1.6163,2.509,0.10716,0,0,0,0
333.1,1.6306,2.5123,0.10836,0,0,0,0
335.6,1.645,2.5163,0.10978,0,0,0,0
338.1,1.66,2.5203,0.11071,0,0,0,0
340.6,1.6735,2.5243,0.11212,0,0,0,0
343.1,1.6885,2.5277,0.11335,0,0,0,0
345.6,1.7024,2.5317,0.11458,0,0,0,0
348.1,1.7174,2.5353,0.11599,0,0,0,0
350.6,1.7313,2.5387,0.11709,0,0,0,0
353.1,1.7463,2.5427,0.11858,0,0,0,0
355.6,1.7608,2.546,0.12005,0,0,0,0
358.1,1.776,2.5497,0.12138,0,0,0,0
360.6,1.7905,2.5524,0.1226,0,0,0,0
363.1,1.8057,2.556,0.12412,0,0,0,0
365.6,1.8203,2.559,0.12542,0,0,0,0
368.1,1.835,2.5623,0.12678,0,0,0,0
370.6,1.8504,2.565,0.12796,0,0,0,0
373.1,1.8645,2.5687,0.12953,0,0,0,0
375.6,1.8796,2.5717,0.13077,0,0,0,0
378.1,1.8943,2.5743,0.13236,0,0,0,0
380.6,1.9093,2.5777,0.13394,0,0,0,0
383.1,1.9238,2.5807,0.13523,0,0,0,0
385.6,1.9394,2.5833,0.13685,0,0,0,0
388.1,1.9533,2.5863,0.13851,0,0,0,0
390.6,1.9689,2.5893,0.14009,0,0,0,0
393.1,1.9836,2.5917,0.14161,0,0,0,0
395.6,1.9987,2.594,0.1433,0,0,0,0
398.09,2.0138,2.5967,0.14513,0,0,0,0
400.6,2.0291,2.5993,0.14687,0,0,0,0
403.1,2.0445,2.6017,0.14866,0,0,0,0
405.6,2.0599,2.6037,0.15031,0,0,0,0
408.1,2.0753,2.6063,0.15201,0,0,0,0
410.59,2.0905,2.6087,0.15394,0,0,0,0
413.09,2.1059,2.6107,0.15587,0,0,0,0
415.6,2.121,2.613,0.15762,0,0,0,0
418.1,2.1363,2.615,0.15957,0,0,0,0
420.59,2.1517,2.617,0.16166,0,0,0,0
423.1,2.1674,2.619,0.16363,0,0,0,0
425.6,2.1826,2.621,0.16542,0,0,0,0
428.1,2.1984,2.6227,0.16775,0,0,0,0
430.59,2.2136,2.6247,0.17002,0,0,0,0
433.09,2.2291,2.6267,0.17226,0,0,0,0
435.59,2.2446,2.628,0.17454,0,0,0,0
438.09,2.2602,2.6293,0.17702,0,0,0,0
440.59,2.2759,2.6307,0.17913,0,0,0,0
443.09,2.2918,2.6327,0.18151,0,0,0,0
445.6,2.3072,2.6333,0.18417,0,0,0,0
448.09,2.3231,2.635,0.18654,0,0,0,0
450.59,2.3386,2.636,0.1889,0,0,0,0
453.09,2.355,2.637,0.19168,0,0,0,0
455.59,2.3703,2.638,0.19448,0,0,0,0
458.09,2.3865,2.6393,0.19718,0,0,0,0
460.59,2.4018,2.64,0.19999,0,0,0,0
463.09,2.4183,2.641,0.20326,0,0,0,0
465.6,2.4337,2.641,0.20605,0,0,0,0
468.09,2.4498,2.642,0.20951,0,0,0,0
470.59,2.466,2.642,0.21309,0,0,0,0
473.09,2.4823,2.643,0.21629,0,0,0,0
475.59,2.4982,2.643,0.22015,0,0,0,0
478.1,2.5147,2.643,0.2238,0,0,0,0
480.59,2.5308,2.642,0.22782,0,0,0,0
483.09,2.5475,2.642,0.23202,0,0,0,0
485.59,2.5638,2.642,0.23622,0,0,0,0
488.09,2.5801,2.641,0.24069,0,0,0,0
490.59,2.5966,2.64,0.24551,0,0,0,0
493.09,2.613,2.638,0.25027,0,0,0,0
495.59,2.6298,2.637,0.25543,0,0,0,0
498.09,2.6462,2.6353,0.26087,0,0,0,0
500.59,2.663,2.6333,0.26644,0,0,0,0
503.09,2.6799,2.6307,0.27206,0,0,0,0
505.59,2.6964,2.6273,0.27785,0,0,0,0
508.09,2.7133,2.6243,0.28419,0,0,0,0
510.59,2.7304,2.6203,0.29011,0,0,0,0
513.09,2.7473,2.616,0.29663,0,0,0,0
515.59,2.7644,2.6103,0.30334,0,0,0,0
518.09,2.7813,2.6043,0.31018,0,0,0,0
520.59,2.7984,2.5977,0.3173,0,0,0,0
523.09,2.8155,2.5893,0.32465,0,0,0,0
525.59,2.8331,2.581,0.33207,0,0,0,0
528.09,2.8501,2.5714,0.33947,0,0,0,0
530.59,2.8679,2.5607,0.34719,0,0,0,0
533.09,2.8853,2.5483,0.35503,0,0,0,0
535.59,2.9029,2.535,0.36275,0,0,0,0
538.09,2.9208,2.52,0.37104,0,0,0,0
540.59,2.9386,2.504,0.37912,0,0,0,0
543.09,2.9569,2.4867,0.38741,0,0,0,0
545.59,2.9753,2.4663,0.39599,0,0,0,0
548.09,2.9936,2.4453,0.40444,0,0,0,0
550.59,3.0122,2.4197,0.41339,0,0,0,0
553.09,3.0319,2.3927,0.42266,0,0,0,0
555.09,3.047,2.3651,0.43064,0,0,0,0