File: lab_data/AA6014-T4_results/DATA/NT20_90_1.csv
Time[s],Displacement[mm],Force[kN],AxStrain_1,AxStrain_2,Thickness[mm],OuterWidth[mm],InnerWidth[mm]
0.61,0,-0.0057948,0,0,1.1118,20,10.053
3.11,0.00232,0.085423,2.2e-05,0,0,0,0
5.61,0.003937,0.17158,0.00021598,0,0,0,0
8.11,0.005276,0.23629,0.00027296,0,0,0,0
10.61,0.006772,0.30786,0.00029196,0,0,0,0
13.11,0.009043,0.37815,0.00050387,0,0,0,0
15.61,0.010679,0.45285,0.00050387,0,0,0,0
18.11,0.012109,0.529,0.00060082,0,0,0,0
20.61,0.013916,0.60586,0.00058383,0,0,0,0
23.11,0.016484,0.68443,0.00055385,0,0,0,0
25.61,0.018579,0.76143,0.00062081,0,0,0,0
28.11,0.020268,0.839,0.00074872,0,0,0,0
30.61,0.022225,0.916,0.00080867,0,0,0,0
33.11,0.024666,0.99286,0.00080568,0,0,0,0
35.61,0.027459,1.0671,0.00098951,0,0,0,0
38.11,0.029329,1.1419,0.0010774,0,0,0,0
40.61,0.032028,1.214,0.0010774,0,0,0,0
43.11,0.035419,1.2829,0.0013621,0,0,0,0
45.61,0.039998,1.3411,0.0022505,0,0,0,0
48.11,0.048358,1.377,0.0041145,0,0,0,0
50.62,0.059007,1.4107,0.0050562,0,0,0,0
53.11,0.069136,1.441,0.0063955,0,0,0,0
55.61,0.080366,1.4686,0.0079682,0,0,0,0
58.11,0.091807,1.494,0.0091669,0,0,0,0
60.61,0.10312,1.5184,0.0095562,0,0,0,0
63.11,0.11613,1.541,0.01057,0,0,0,0
65.61,0.12792,1.5623,0.012116,0,0,0,0
68.11,0.14012,1.583,0.013399,0,0,0,0
70.61,0.15287,1.6027,0.01376,0,0,0,0
73.11,0.165,1.6213,0.014353,0,0,0,0
75.61,0.17824,1.6403,0.015765,0,0,0,0
78.11,0.1906,1.6583,0.016951,0,0,0,0
80.61,0.20422,1.6753,0.017471,0,0,0,0
83.11,0.21669,1.6927,0.017993,0,0,0,0
85.61,0.23046,1.7093,0.019202,0,0,0,0
88.11,0.24377,1.7256,0.020226,0,0,0,0
90.61,0.25741,1.7417,0.020893,0,0,0,0
93.11,0.27109,1.757,0.021486,0,0,0,0
95.62,0.28457,1.772,0.022677,0,0,0,0
98.11,0.29879,1.7867,0.023602,0,0,0,0
100.61,0.31225,1.8013,0.024514,0,0,0,0
103.11,0.32646,1.8153,0.025342,0,0,0,0
105.61,0.33999,1.8294,0.02616,0,0,0,0
108.11,0.35467,1.843,0.027007,0,0,0,0
110.61,0.36828,1.8563,0.027908,0,0,0,0
113.11,0.38255,1.8693,0.028704,0,0,0,0
115.61,0.39615,1.8817,0.029506,0,0,0,0
118.11,0.41008,1.8947,0.030289,0,0,0,0
120.61,0.42463,1.907,0.031265,0,0,0,0
123.11,0.43847,1.9193,0.031981,0,0,0,0
125.61,0.45304,1.931,0.032956,0,0,0,0
128.11,0.46657,1.9427,0.033573,0,0,0,0
130.61,0.48138,1.9547,0.034384,0,0,0,0
133.11,0.49503,1.966,0.035454,0,0,0,0
135.61,0.5099,1.977,0.036199,0,0,0,0
138.11,0.52385,1.988,0.036847,0,0,0,0
140.61,0.53842,1.999,0.037817,0,0,0,0
143.11,0.55268,2.01,0.038786,0,0,0,0
145.61,0.56593,2.02,0.039593,0,0,0,0
148.11,0.58038,2.0303,0.040335,0,0,0,0
150.61,0.59436,2.041,0.04098,0,0,0,0
153.11,0.60921,2.051,0.041849,0,0,0,0
155.61,0.623,2.061,0.042654,0,0,0,0
158.11,0.63788,2.071,0.043555,0,0,0,0
160.61,0.6519,2.08,0.044582,0,0,0,0
163.11,0.66701,2.09,0.045224,0,0,0,0
165.61,0.68089,2.099,0.045866,0,0,0,0
168.11,0.69612,2.109,0.046795,0,0,0,0
170.61,0.71023,2.1177,0.04766,0,0,0,0
173.11,0.72386,2.1267,0.048523,0,0,0,0
175.61,0.73873,2.136,0.04926,0,0,0,0
178.11,0.75225,2.1447,0.050122,0,0,0,0
180.61,0.7675,2.153,0.051302,0,0,0,0
183.11,0.78185,2.161,0.052068,0,0,0,0
185.61,0.79627,2.1697,0.052546,0,0,0,0
188.11,0.81046,2.178,0.053342,0,0,0,0
190.61,0.82493,2.186,0.054551,0,0,0,0
193.11,0.83887,2.1937,0.055567,0,0,0,0
195.61,0.85284,2.2017,0.056138,0,0,0,0
198.11,0.86745,2.2097,0.056963,0,0,0,0
200.61,0.88236,2.2173,0.057914,0,0,0,0
203.11,0.89607,2.2247,0.058864,0,0,0,0
205.61,0.91046,2.2317,0.059624,0,0,0,0
208.11,0.92467,2.239,0.060415,0,0,0,0
210.61,0.93889,2.2463,0.061456,0,0,0,0
213.11,0.9533,2.2533,0.062403,0,0,0,0
215.61,0.96733,2.2607,0.063192,0,0,0,0
218.11,0.98216,2.2677,0.063853,0,0,0,0
220.61,0.99602,2.2743,0.064798,0,0,0,0
223.11,1.0106,2.281,0.065741,0,0,0,0
225.61,1.024,2.2877,0.06681,0,0,0,0
228.11,1.0388,2.294,0.067532,0,0,0,0
230.61,1.053,2.301,0.068378,0,0,0,0
233.11,1.0669,2.3073,0.069381,0,0,0,0
235.61,1.0813,2.3133,0.070226,0,0,0,0
238.11,1.0949,2.3197,0.07104,0,0,0,0
240.61,1.1098,2.326,0.07204,0,0,0,0
243.11,1.124,2.332,0.072852,0,0,0,0
245.61,1.1378,2.338,0.073881,0,0,0,0
248.11,1.1525,2.3443,0.074878,0,0,0,0
250.61,1.1673,2.3497,0.075751,0,0,0,0
253.11,1.181,2.3557,0.076591,0,0,0,0
255.61,1.1959,2.3613,0.077429,0,0,0,0
258.11,1.2096,2.367,0.078579,0,0,0,0
260.61,1.2241,2.3727,0.079572,0,0,0,0
263.11,1.238,2.3783,0.080439,0,0,0,0
265.61,1.2522,2.384,0.081368,0,0,0,0
268.11,1.2663,2.389,0.082389,0,0,0,0
270.61,1.2803,2.395,0.083502,0,0,0,0
273.11,1.2948,2.3997,0.084428,0,0,0,0
275.61,1.3085,2.405,0.085414,0,0,0,0
278.11,1.3234,2.41,0.086462,0,0,0,0
280.61,1.3366,2.415,0.087508,0,0,0,0
283.11,1.3517,2.42,0.088646,0,0,0,0
285.61,1.3656,2.425,0.089751,0,0,0,0
288.11,1.3802,2.4303,0.090763,0,0,0,0
290.61,1.3944,2.435,0.091836,0,0,0,0
293.11,1.4088,2.44,0.092785,0,0,0,0
295.61,1.4225,2.4443,0.093794,0,0,0,0
298.11,1.4378,2.4493,0.094864,0,0,0,0
300.61,1.452,2.4536,0.096145,0,0,0,0
303.11,1.4661,2.4586,0.09712,0,0,0,0
305.61,1.4808,2.463,0.098247,0,0,0,0
308.11,1.4949,2.4673,0.099403,0,0,0,0
310.61,1.5097,2.472,0.10059,0,0,0,0
313.11,1.5237,2.476,0.10147,0,0,0,0
315.61,1.5387,2.4807,0.10268,0,0,0,0
318.11,1.5527,2.485,0.10395,0,0,0,0
320.61,1.5675,2.489,0.10519,0,0,0,0
323.11,1.5819,2.493,0.1064,0,0,0,0
325.61,1.5967,2.497,0.10749,0,0,0,0
328.11,1.6112,2.501,0.10857,0,0,0,0
330.61,1.6259,2.505,0.10996,0,0,0,0
333.11,1.6407,2.5087,0.11107,0,0,0,0
335.61,1.655,2.5127,0.11242,0,0,0,0
338.11,1.6698,2.5163,0.1135,0,0,0,0
340.61,1.6841,2.52,0.11473,0,0,0,0
343.11,1.6992,2.5237,0.11607,0,0,0,0
345.61,1.7133,2.5273,0.11739,0,0,0,0
348.11,1.7286,2.531,0.11837,0,0,0,0
350.61,1.7434,2.5343,0.12001,0,0,0,0
353.11,1.7581,2.538,0.12135,0,0,0,0
355.61,1.7729,2.5413,0.12269,0,0,0,0
358.11,1.7873,2.5447,0.12402,0,0,0,0
360.61,1.8021,2.5477,0.12562,0,0,0,0
363.11,1.8169,2.551,0.12707,0,0,0,0
365.61,1.8316,2.5543,0.1284,0,0,0,0
368.11,1.8466,2.5573,0.12985,0,0,0,0
370.61,1.8615,2.5603,0.13126,0,0,0,0
373.11,1.8764,2.5633,0.13285,0,0,0,0
375.61,1.8914,2.5663,0.13417,0,0,0,0
378.11,1.9063,2.5693,0.1357,0,0,0,0
380.61,1.9213,2.572,0.13725,0,0,0,0
383.11,1.936,2.5747,0.13912,0,0,0,0
385.61,1.9514,2.5773,0.14084,0,0,0,0
388.11,1.9658,2.5803,0.14201,0,0,0,0
390.61,1.9811,2.5827,0.14381,0,0,0,0
393.11,1.9963,2.5853,0.1457,0,0,0,0
395.61,2.0115,2.5877,0.14733,0,0,0,0
398.11,2.0264,2.5903,0.14924,0,0,0,0
400.61,2.0419,2.5927,0.15085,0,0,0,0
403.11,2.0569,2.595,0.15256,0,0,0,0
405.61,2.0728,2.597,0.15443,0,0,0,0
408.11,2.0879,2.5997,0.15653,0,0,0,0
410.61,2.1035,2.6017,0.15833,0,0,0,0
413.11,2.1187,2.6037,0.16019,0,0,0,0
415.61,2.1342,2.6057,0.16217,0,0,0,0
418.11,2.1498,2.6077,0.16425,0,0,0,0
420.61,2.1651,2.6097,0.16641,0,0,0,0
423.11,2.1807,2.6113,0.16834,0,0,0,0
425.61,2.1957,2.613,0.17047,0,0,0,0
428.11,2.2118,2.615,0.17304,0,0,0,0
430.61,2.2273,2.6167,0.1753,0,0,0,0
433.11,2.2433,2.618,0.17769,0,0,0,0
435.61,2.2589,2.6197,0.17999,0,0,0,0
438.11,2.2748,2.6207,0.18251,0,0,0,0
440.61,2.2905,2.6217,0.18517,0,0,0,0
443.11,2.3064,2.6237,0.18748,0,0,0,0
445.61,2.3222,2.624,0.19037,0,0,0,0
448.11,2.3383,2.6256,0.19306,0,0,0,0
450.61,2.3539,2.627,0.19579,0,0,0,0
453.11,2.3699,2.6276,0.19896,0,0,0,0
455.61,2.3854,2.628,0.20185,0,0,0,0
458.11,2.4015,2.629,0.20486,0,0,0,0
460.61,2.4173,2.63,0.20816,0,0,0,0
463.11,2.4334,2.63,0.21151,0,0,0,0
465.61,2.4492,2.6303,0.2149,0,0,0,0
468.11,2.4655,2.631,0.21844,0,0,0,0
470.61,2.4818,2.631,0.22216,0,0,0,0
473.11,2.498,2.631,0.22632,0,0,0,0
475.61,2.5142,2.631,0.23054,0,0,0,0
478.11,2.5306,2.631,0.23488,0,0,0,0
480.61,2.547,2.63,0.23933,0,0,0,0
483.11,2.5634,2.6293,0.24381,0,0,0,0
485.61,2.5798,2.628,0.24867,0,0,0,0
488.11,2.5968,2.627,0.25378,0,0,0,0
490.61,2.6132,2.626,0.25916,0,0,0,0
493.11,2.6296,2.624,0.26484,0,0,0,0
495.61,2.6466,2.622,0.27065,0,0,0,0
498.11,2.6632,2.6193,0.27695,0,0,0,0
500.61,2.6797,2.617,0.28327,0,0,0,0
503.11,2.6966,2.614,0.28983,0,0,0,0
505.61,2.7132,2.6097,0.29686,0,0,0,0
508.11,2.7306,2.605,0.30439,0,0,0,0
510.61,2.7473,2.6,0.31221,0,0,0,0
513.11,2.7647,2.594,0.3205,0,0,0,0
515.61,2.7816,2.5877,0.32909,0,0,0,0
518.11,2.7989,2.5797,0.33739,0,0,0,0
520.61,2.8164,2.5713,0.34655,0,0,0,0
523.11,2.8339,2.5616,0.35654,0,0,0,0
525.61,2.8508,2.551,0.36599,0,0,0,0
528.11,2.8687,2.539,0.37584,0,0,0,0
530.61,2.8862,2.5256,0.3855,0,0,0,0
533.11,2.9042,2.5116,0.39597,0,0,0,0
535.61,2.9222,2.4957,0.40629,0,0,0,0
538.11,2.9401,2.4774,0.41823,0,0,0,0
540.61,2.9581,2.4584,0.43041,0,0,0,0
543.11,2.9766,2.4367,0.44349,0,0,0,0
545.61,2.9949,2.4116,0.45638,0,0,0,0
548.11,3.0139,2.3837,0.46944,0,0,0,0
550.61,3.0333,2.3517,0.48271,0,0,0,0
552.11,3.0455,2.3276,0.49155,0,0,0,0