File: lab_data/AA6014-T4_results/DATA/NT20_00_2.csv
Time[s],Displacement[mm],Force[kN],AxStrain_1,AxStrain_2,Thickness[mm],OuterWidth[mm],InnerWidth[mm]
0.57,0,-0.0050652,0,0,1.12,20,9.9932
2.57,0.001724,0.055145,-3.1e-05,0,0,0,0
4.57,0.002645,0.12843,0.00014299,0,0,0,0
6.58,0.004044,0.20057,-0.00016301,0,0,0,0
8.57,0.004951,0.25615,0.00012199,0,0,0,0
10.57,0.006167,0.30457,0.00015499,0,0,0,0
12.57,0.007878,0.36314,0.00028496,0,0,0,0
14.57,0.009015,0.41843,0.00024197,0,0,0,0
16.57,0.010095,0.47914,0.00031895,0,0,0,0
18.57,0.011065,0.54014,0.00032595,0,0,0,0
20.57,0.012549,0.60043,0.00022797,0,0,0,0
22.57,0.01452,0.662,0.00043291,0,0,0,0
24.57,0.016538,0.72343,0.00058383,0,0,0,0
26.57,0.01781,0.78614,0.00042291,0,0,0,0
28.57,0.0188,0.84686,0.00056684,0,0,0,0
30.57,0.020123,0.91114,0.00051387,0,0,0,0
32.58,0.021825,0.971,0.0006348,0,0,0,0
34.58,0.023997,1.033,0.00084864,0,0,0,0
36.57,0.025706,1.0921,0.00097952,0,0,0,0
38.58,0.027254,1.1516,0.00080568,0,0,0,0
40.57,0.028842,1.2099,0.0009995,0,0,0,0
42.57,0.031084,1.2656,0.0011473,0,0,0,0
44.57,0.034072,1.3187,0.0014929,0,0,0,0
46.58,0.037608,1.3663,0.0019421,0,0,0,0
48.57,0.042116,1.4074,0.0027722,0,0,0,0
50.57,0.048824,1.44,0.0035058,0,0,0,0
52.57,0.056596,1.4697,0.0042081,0,0,0,0
54.57,0.064099,1.4957,0.0053507,0,0,0,0
56.57,0.072593,1.5193,0.0066618,0,0,0,0
58.57,0.081751,1.5423,0.0078481,0,0,0,0
60.57,0.090268,1.5634,0.0082052,0,0,0,0
62.57,0.099353,1.5834,0.0087308,0,0,0,0
64.57,0.1092,1.6023,0.0096027,0,0,0,0
66.57,0.11786,1.6207,0.010911,0,0,0,0
68.57,0.12742,1.6383,0.011918,0,0,0,0
70.57,0.1377,1.656,0.012351,0,0,0,0
72.57,0.14689,1.6724,0.012644,0,0,0,0
74.57,0.15663,1.6884,0.013442,0,0,0,0
76.57,0.16736,1.704,0.014439,0,0,0,0
78.57,0.1771,1.7193,0.015424,0,0,0,0
80.57,0.1872,1.734,0.015768,0,0,0,0
82.57,0.19772,1.7486,0.015957,0,0,0,0
84.57,0.20797,1.7633,0.016799,0,0,0,0
86.57,0.21879,1.777,0.017825,0,0,0,0
88.57,0.22938,1.791,0.018715,0,0,0,0
90.57,0.23951,1.8047,0.019202,0,0,0,0
92.57,0.25066,1.818,0.019585,0,0,0,0
94.57,0.26146,1.8313,0.02017,0,0,0,0
96.57,0.27189,1.8433,0.021025,0,0,0,0
98.57,0.28314,1.856,0.022086,0,0,0,0
100.57,0.29388,1.8683,0.022586,0,0,0,0
102.57,0.30456,1.8807,0.022956,0,0,0,0
104.57,0.31573,1.8927,0.023675,0,0,0,0
106.57,0.32625,1.9044,0.024357,0,0,0,0
108.57,0.33713,1.916,0.025208,0,0,0,0
110.57,0.34888,1.927,0.025764,0,0,0,0
112.57,0.35895,1.938,0.026412,0,0,0,0
114.57,0.37029,1.95,0.027092,0,0,0,0
116.57,0.38154,1.96,0.027647,0,0,0,0
118.57,0.39181,1.971,0.028365,0,0,0,0
120.57,0.40358,1.9813,0.02892,0,0,0,0
122.57,0.41433,1.992,0.029539,0,0,0,0
124.57,0.425,2.0023,0.030192,0,0,0,0
126.57,0.43685,2.0127,0.030842,0,0,0,0
128.57,0.44746,2.0227,0.031428,0,0,0,0
130.57,0.45852,2.0323,0.032242,0,0,0,0
132.57,0.47038,2.042,0.032793,0,0,0,0
134.57,0.48121,2.0517,0.033281,0,0,0,0
136.57,0.49258,2.061,0.03393,0,0,0,0
138.57,0.50404,2.0703,0.034579,0,0,0,0
140.57,0.51453,2.08,0.035292,0,0,0,0
142.57,0.52638,2.089,0.035778,0,0,0,0
144.57,0.53753,2.098,0.036361,0,0,0,0
146.57,0.54873,2.107,0.03704,0,0,0,0
148.57,0.56036,2.1153,0.03785,0,0,0,0
150.57,0.57139,2.1243,0.038367,0,0,0,0
152.57,0.58264,2.133,0.038883,0,0,0,0
154.57,0.59457,2.141,0.039593,0,0,0,0
156.57,0.60517,2.15,0.04027,0,0,0,0
158.57,0.61659,2.158,0.04098,0,0,0,0
160.57,0.62805,2.1663,0.04172,0,0,0,0
162.57,0.63888,2.1747,0.04214,0,0,0,0
164.57,0.65069,2.183,0.042944,0,0,0,0
166.57,0.66194,2.1906,0.043812,0,0,0,0
168.57,0.67314,2.1986,0.044518,0,0,0,0
170.57,0.68524,2.206,0.045032,0,0,0,0
172.57,0.69592,2.2136,0.045545,0,0,0,0
174.57,0.70715,2.221,0.046187,0,0,0,0
176.57,0.71858,2.229,0.046955,0,0,0,0
178.57,0.72971,2.2367,0.04766,0,0,0,0
180.57,0.74088,2.2434,0.048301,0,0,0,0
182.57,0.75269,2.2507,0.048907,0,0,0,0
184.57,0.76305,2.258,0.049547,0,0,0,0
186.57,0.77481,2.265,0.05025,0,0,0,0
188.57,0.78577,2.2714,0.050824,0,0,0,0
190.57,0.7966,2.2783,0.051621,0,0,0,0
192.57,0.80838,2.2853,0.052131,0,0,0,0
194.57,0.81936,2.2923,0.052832,0,0,0,0
196.57,0.8302,2.2987,0.053437,0,0,0,0
198.57,0.84198,2.3053,0.0542,0,0,0,0
200.57,0.85277,2.3117,0.0549,0,0,0,0
202.57,0.8641,2.3183,0.055472,0,0,0,0
204.57,0.87549,2.325,0.05617,0,0,0,0
206.57,0.88628,2.3307,0.056805,0,0,0,0
208.57,0.89807,2.3367,0.05747,0,0,0,0
210.57,0.9092,2.3433,0.058136,0,0,0,0
212.57,0.92025,2.3497,0.058896,0,0,0,0
214.57,0.93216,2.3553,0.059465,0,0,0,0
216.57,0.943,2.3613,0.060225,0,0,0,0
218.57,0.95432,2.3673,0.060951,0,0,0,0
220.57,0.9659,2.373,0.061741,0,0,0,0
222.57,0.97662,2.379,0.062183,0,0,0,0
224.57,0.98811,2.3843,0.062845,0,0,0,0
226.57,0.99948,2.3907,0.063759,0,0,0,0
228.57,1.0104,2.3963,0.064326,0,0,0,0
230.57,1.022,2.401,0.065112,0,0,0,0
232.57,1.0331,2.4067,0.065773,0,0,0,0
234.57,1.0439,2.4123,0.066527,0,0,0,0
236.57,1.0558,2.4177,0.067344,0,0,0,0
238.57,1.0666,2.423,0.067971,0,0,0,0
240.57,1.0781,2.428,0.068692,0,0,0,0
242.57,1.0897,2.433,0.069475,0,0,0,0
244.57,1.1008,2.4387,0.070321,0,0,0,0
246.57,1.1119,2.444,0.070883,0,0,0,0
248.57,1.1234,2.4493,0.071696,0,0,0,0
250.57,1.1341,2.4536,0.07254,0,0,0,0
252.57,1.146,2.459,0.073164,0,0,0,0
254.57,1.1572,2.464,0.073913,0,0,0,0
256.57,1.1678,2.4687,0.07466,0,0,0,0
258.57,1.1793,2.4733,0.075502,0,0,0,0
260.57,1.1901,2.478,0.076279,0,0,0,0
262.57,1.2011,2.483,0.076964,0,0,0,0
264.57,1.2129,2.488,0.077616,0,0,0,0
266.57,1.2236,2.4923,0.078516,0,0,0,0
268.57,1.2347,2.4966,0.079261,0,0,0,0
270.57,1.2462,2.5017,0.080099,0,0,0,0
272.57,1.2571,2.5064,0.080903,0,0,0,0
274.57,1.2688,2.5103,0.081678,0,0,0,0
276.57,1.2799,2.515,0.082544,0,0,0,0
278.57,1.2908,2.519,0.083285,0,0,0,0
280.57,1.3022,2.524,0.084149,0,0,0,0
282.57,1.3134,2.528,0.084828,0,0,0,0
284.57,1.3247,2.532,0.085723,0,0,0,0
286.57,1.3375,2.536,0.086492,0,0,0,0
288.57,1.348,2.5406,0.087323,0,0,0,0
290.57,1.3594,2.5447,0.088246,0,0,0,0
292.57,1.3708,2.5487,0.089044,0,0,0,0
294.57,1.3817,2.5523,0.089935,0,0,0,0
296.57,1.3938,2.557,0.090671,0,0,0,0
298.57,1.4051,2.561,0.091529,0,0,0,0
300.57,1.4164,2.5643,0.092387,0,0,0,0
302.57,1.4281,2.5684,0.093366,0,0,0,0
304.57,1.4391,2.572,0.09416,0,0,0,0
306.57,1.4509,2.576,0.095077,0,0,0,0
308.57,1.4624,2.5797,0.096084,0,0,0,0
310.57,1.4733,2.5833,0.096967,0,0,0,0
312.57,1.4851,2.587,0.097942,0,0,0,0
314.57,1.4963,2.5903,0.098733,0,0,0,0
316.57,1.5075,2.594,0.099706,0,0,0,0
318.57,1.5198,2.598,0.10083,0,0,0,0
320.57,1.5313,2.601,0.10159,0,0,0,0
322.57,1.5425,2.605,0.10241,0,0,0,0
324.57,1.5541,2.608,0.10362,0,0,0,0
326.57,1.5651,2.6113,0.10459,0,0,0,0
328.57,1.5771,2.615,0.10561,0,0,0,0
330.57,1.5888,2.618,0.10643,0,0,0,0
332.57,1.6001,2.6217,0.10746,0,0,0,0
334.57,1.6121,2.6243,0.10857,0,0,0,0
336.57,1.6232,2.628,0.10974,0,0,0,0
338.57,1.6348,2.631,0.11062,0,0,0,0
340.57,1.6466,2.634,0.1117,0,0,0,0
342.57,1.6579,2.6373,0.11275,0,0,0,0
344.57,1.6696,2.64,0.11386,0,0,0,0
346.57,1.6816,2.6427,0.11493,0,0,0,0
348.57,1.693,2.646,0.11607,0,0,0,0
350.57,1.705,2.6487,0.11718,0,0,0,0
352.57,1.7167,2.6514,0.11846,0,0,0,0
354.57,1.7283,2.6543,0.1195,0,0,0,0
356.57,1.7405,2.657,0.12072,0,0,0,0
358.57,1.7521,2.66,0.122,0,0,0,0
360.57,1.7643,2.662,0.12313,0,0,0,0
362.57,1.7761,2.665,0.12423,0,0,0,0
364.57,1.7879,2.6677,0.12559,0,0,0,0
366.57,1.8001,2.6703,0.12701,0,0,0,0
368.57,1.8118,2.673,0.12805,0,0,0,0
370.57,1.8239,2.6753,0.12917,0,0,0,0
372.57,1.8359,2.6777,0.13055,0,0,0,0
374.57,1.8477,2.6803,0.13188,0,0,0,0
376.57,1.8599,2.6827,0.13332,0,0,0,0
378.57,1.8719,2.6843,0.13441,0,0,0,0
380.57,1.8835,2.6867,0.13581,0,0,0,0
382.57,1.8958,2.6893,0.13722,0,0,0,0
384.57,1.9074,2.6913,0.13862,0,0,0,0
386.57,1.9196,2.6933,0.14003,0,0,0,0
388.57,1.9316,2.6953,0.1414,0,0,0,0
390.57,1.9434,2.6977,0.14285,0,0,0,0
392.57,1.9559,2.6997,0.14466,0,0,0,0
394.57,1.968,2.701,0.14608,0,0,0,0
396.57,1.9799,2.7027,0.14776,0,0,0,0
398.57,1.9924,2.7047,0.14926,0,0,0,0
400.57,2.0041,2.7067,0.15111,0,0,0,0
402.57,2.0166,2.7083,0.1527,0,0,0,0
404.57,2.0289,2.7103,0.15437,0,0,0,0
406.57,2.041,2.7117,0.15618,0,0,0,0
408.57,2.0536,2.7133,0.15784,0,0,0,0
410.57,2.0657,2.7147,0.15959,0,0,0,0
412.57,2.0782,2.7163,0.16148,0,0,0,0
414.57,2.0909,2.7177,0.16353,0,0,0,0
416.57,2.1028,2.7187,0.16553,0,0,0,0
418.57,2.1156,2.72,0.16729,0,0,0,0
420.57,2.1282,2.721,0.16939,0,0,0,0
422.57,2.1403,2.7223,0.1716,0,0,0,0
424.57,2.1529,2.7237,0.17391,0,0,0,0
426.57,2.1656,2.7243,0.17591,0,0,0,0
428.57,2.1783,2.7257,0.17825,0,0,0,0
430.57,2.191,2.7263,0.18058,0,0,0,0
432.57,2.2033,2.727,0.18304,0,0,0,0
434.57,2.2164,2.728,0.18569,0,0,0,0
436.57,2.229,2.728,0.18842,0,0,0,0
438.57,2.242,2.7287,0.19109,0,0,0,0
440.57,2.255,2.7286,0.19372,0,0,0,0
442.57,2.2676,2.7293,0.19665,0,0,0,0
444.57,2.2807,2.7297,0.19989,0,0,0,0
446.57,2.2935,2.73,0.20278,0,0,0,0
448.57,2.3063,2.7296,0.20598,0,0,0,0
450.57,2.3195,2.7297,0.2095,0,0,0,0
452.57,2.3322,2.729,0.21287,0,0,0,0
454.57,2.3454,2.7287,0.21655,0,0,0,0
456.57,2.3582,2.728,0.22036,0,0,0,0
458.57,2.3709,2.7273,0.22425,0,0,0,0
460.57,2.3844,2.7263,0.22846,0,0,0,0
462.57,2.3973,2.725,0.23272,0,0,0,0
464.57,2.4107,2.7233,0.23715,0,0,0,0
466.57,2.4238,2.722,0.2418,0,0,0,0
468.57,2.4369,2.7203,0.24662,0,0,0,0
470.57,2.4503,2.7177,0.25164,0,0,0,0
472.57,2.4637,2.715,0.25708,0,0,0,0
474.57,2.477,2.712,0.2628,0,0,0,0
476.57,2.4906,2.709,0.26852,0,0,0,0
478.57,2.5041,2.705,0.27461,0,0,0,0
480.57,2.518,2.701,0.28046,0,0,0,0
482.57,2.5314,2.6963,0.28703,0,0,0,0
484.57,2.5454,2.6907,0.29376,0,0,0,0
486.57,2.5593,2.685,0.30049,0,0,0,0
488.57,2.573,2.6783,0.30738,0,0,0,0
490.57,2.5871,2.6713,0.31447,0,0,0,0
492.57,2.6006,2.6633,0.32167,0,0,0,0
494.57,2.6149,2.655,0.32916,0,0,0,0
496.57,2.6288,2.6453,0.33698,0,0,0,0
498.57,2.6431,2.635,0.34467,0,0,0,0
500.57,2.6578,2.624,0.35275,0,0,0,0
502.57,2.6717,2.612,0.36111,0,0,0,0
504.57,2.6863,2.5983,0.36925,0,0,0,0
506.57,2.7009,2.584,0.37747,0,0,0,0
508.57,2.7152,2.569,0.38602,0,0,0,0
510.57,2.7302,2.552,0.39447,0,0,0,0
512.57,2.7448,2.534,0.40393,0,0,0,0
514.57,2.7599,2.5144,0.41328,0,0,0,0
516.57,2.7746,2.4924,0.42336,0,0,0,0
518.57,2.7902,2.4674,0.43372,0,0,0,0
520.57,2.807,2.4304,0.44717,0,0,0,0