File: lab_data/AA6014-T4_results/DATA/NT20_00_1.csv
Time[s],Displacement[mm],Force[kN],AxStrain_1,AxStrain_2,Thickness[mm],OuterWidth[mm],InnerWidth[mm]
0.68,0,-0.0047583,0,0,1.1133,20,10.002
2.68,0.001253,0.057286,2.2e-05,0,0,0,0
4.68,0.00234,0.13057,0.00032495,0,0,0,0
6.68,0.003463,0.20257,0.00026696,0,0,0,0
8.68,0.004212,0.253,7.7997e-05,0,0,0,0
10.68,0.005329,0.30686,-6.3002e-05,0,0,0,0
12.68,0.007078,0.36329,0.00029496,0,0,0,0
14.68,0.008229,0.42143,0.00035894,0,0,0,0
16.68,0.009017,0.48057,0.00048688,0,0,0,0
18.68,0.010031,0.54186,0.0004569,0,0,0,0
20.68,0.011589,0.603,0.00029896,0,0,0,0
22.68,0.013429,0.66571,0.00054385,0,0,0,0
24.68,0.015494,0.72757,0.00065079,0,0,0,0
26.68,0.016961,0.79014,0.00076171,0,0,0,0
28.68,0.018005,0.85086,0.00073173,0,0,0,0
30.68,0.019072,0.91114,0.00080568,0,0,0,0
32.68,0.020798,0.97314,0.00075472,0,0,0,0
34.68,0.02343,1.0331,0.00074472,0,0,0,0
36.68,0.025038,1.0941,0.00088561,0,0,0,0
38.68,0.026589,1.1527,0.00099351,0,0,0,0
40.68,0.028221,1.2101,0.0010335,0,0,0,0
42.68,0.030537,1.2669,0.0010235,0,0,0,0
44.68,0.033619,1.3201,0.0012312,0,0,0,0
46.68,0.037218,1.3666,0.0020529,0,0,0,0
48.68,0.041804,1.4067,0.0027692,0,0,0,0
50.68,0.048616,1.4401,0.0036155,0,0,0,0
52.68,0.056213,1.4686,0.0041046,0,0,0,0
54.68,0.063965,1.4953,0.0052999,0,0,0,0
56.68,0.072257,1.519,0.0065783,0,0,0,0
58.68,0.081674,1.5416,0.0078114,0,0,0,0
60.68,0.089906,1.5627,0.0081388,0,0,0,0
62.68,0.099125,1.583,0.0086981,0,0,0,0
64.68,0.10893,1.6016,0.0095096,0,0,0,0
66.68,0.118,1.62,0.010779,0,0,0,0
68.68,0.12719,1.6377,0.011791,0,0,0,0
70.68,0.1379,1.6543,0.012209,0,0,0,0
72.68,0.14699,1.671,0.012488,0,0,0,0
74.68,0.1566,1.687,0.013293,0,0,0,0
76.68,0.16745,1.703,0.014369,0,0,0,0
78.68,0.17705,1.718,0.015342,0,0,0,0
80.68,0.18721,1.7334,0.015768,0,0,0,0
82.68,0.19786,1.7476,0.015864,0,0,0,0
84.68,0.2079,1.762,0.016604,0,0,0,0
86.68,0.21856,1.7757,0.017934,0,0,0,0
88.68,0.22953,1.7896,0.018768,0,0,0,0
90.68,0.23969,1.803,0.019058,0,0,0,0
92.68,0.25078,1.8163,0.019588,0,0,0,0
94.68,0.26167,1.8293,0.020078,0,0,0,0
96.68,0.27196,1.8424,0.021338,0,0,0,0
98.68,0.28325,1.8543,0.021923,0,0,0,0
100.68,0.29425,1.8673,0.022415,0,0,0,0
102.68,0.30457,1.879,0.02277,0,0,0,0
104.68,0.31617,1.8914,0.023567,0,0,0,0
106.68,0.32662,1.9026,0.024324,0,0,0,0
108.68,0.3375,1.9143,0.025225,0,0,0,0
110.68,0.34895,1.926,0.025785,0,0,0,0
112.68,0.35937,1.9367,0.026151,0,0,0,0
114.68,0.37049,1.948,0.026961,0,0,0,0
116.68,0.38169,1.9587,0.027779,0,0,0,0
118.68,0.39228,1.9696,0.028236,0,0,0,0
120.68,0.40383,1.98,0.028986,0,0,0,0
122.68,0.4147,1.9903,0.029572,0,0,0,0
124.68,0.42522,2.0003,0.030094,0,0,0,0
126.68,0.43721,2.011,0.030843,0,0,0,0
128.68,0.448,2.0207,0.031429,0,0,0,0
130.68,0.45888,2.0307,0.032145,0,0,0,0
132.68,0.47099,2.0407,0.032859,0,0,0,0
134.68,0.48164,2.0497,0.033443,0,0,0,0
136.68,0.49299,2.0593,0.034093,0,0,0,0
138.68,0.50515,2.0687,0.034514,0,0,0,0
140.68,0.51552,2.0777,0.03539,0,0,0,0
142.68,0.52706,2.087,0.036071,0,0,0,0
144.68,0.53839,2.096,0.036524,0,0,0,0
146.68,0.54907,2.1053,0.037171,0,0,0,0
148.68,0.56099,2.114,0.037753,0,0,0,0
150.68,0.57207,2.122,0.038399,0,0,0,0
152.68,0.58298,2.131,0.039013,0,0,0,0
154.68,0.59473,2.1396,0.039561,0,0,0,0
156.68,0.60558,2.148,0.040207,0,0,0,0
158.68,0.61696,2.156,0.040819,0,0,0,0
160.68,0.62891,2.1647,0.041657,0,0,0,0
162.68,0.63959,2.1723,0.042236,0,0,0,0
164.68,0.65115,2.1803,0.042719,0,0,0,0
166.68,0.66282,2.188,0.043459,0,0,0,0
168.68,0.67353,2.196,0.04423,0,0,0,0
170.68,0.68566,2.204,0.044969,0,0,0,0
172.68,0.69671,2.2113,0.045386,0,0,0,0
174.68,0.70788,2.2193,0.046188,0,0,0,0
176.68,0.71943,2.226,0.046764,0,0,0,0
178.68,0.73049,2.234,0.047629,0,0,0,0
180.68,0.74186,2.241,0.048078,0,0,0,0
182.68,0.75343,2.248,0.048685,0,0,0,0
184.68,0.76402,2.2553,0.049452,0,0,0,0
186.68,0.7758,2.2623,0.050027,0,0,0,0
188.68,0.78661,2.2697,0.050666,0,0,0,0
190.68,0.79763,2.2763,0.051304,0,0,0,0
192.68,0.8092,2.283,0.051909,0,0,0,0
194.68,0.82024,2.2897,0.052643,0,0,0,0
196.68,0.8312,2.296,0.053407,0,0,0,0
198.68,0.84284,2.3027,0.053916,0,0,0,0
200.68,0.85341,2.309,0.054647,0,0,0,0
202.68,0.86479,2.3157,0.055251,0,0,0,0
204.68,0.87682,2.322,0.056045,0,0,0,0
206.68,0.88718,2.3283,0.056839,0,0,0,0
208.68,0.89893,2.334,0.057377,0,0,0,0
210.68,0.91006,2.3403,0.058043,0,0,0,0
212.68,0.92106,2.3467,0.05874,0,0,0,0
214.68,0.93282,2.3527,0.059562,0,0,0,0
216.68,0.94371,2.3583,0.060163,0,0,0,0
218.68,0.95499,2.3643,0.060921,0,0,0,0
220.68,0.96676,2.37,0.061458,0,0,0,0
222.68,0.97758,2.3757,0.062152,0,0,0,0
224.68,0.98913,2.3813,0.062972,0,0,0,0
226.68,1.0005,2.387,0.063823,0,0,0,0
228.68,1.011,2.3933,0.064296,0,0,0,0
230.68,1.0231,2.3987,0.064988,0,0,0,0
232.68,1.0341,2.4037,0.065743,0,0,0,0
234.68,1.0451,2.409,0.066403,0,0,0,0
236.68,1.0565,2.4147,0.067,0,0,0,0
238.68,1.0679,2.4203,0.067721,0,0,0,0
240.68,1.0789,2.4253,0.068536,0,0,0,0
242.68,1.0906,2.4303,0.069195,0,0,0,0
244.68,1.1012,2.4357,0.069977,0,0,0,0
246.68,1.1132,2.441,0.070791,0,0,0,0
248.68,1.1244,2.4457,0.071604,0,0,0,0
250.68,1.135,2.451,0.072353,0,0,0,0
252.68,1.1469,2.4557,0.07304,0,0,0,0
254.68,1.1581,2.4607,0.073633,0,0,0,0
256.68,1.1687,2.466,0.074382,0,0,0,0
258.68,1.1802,2.47,0.075316,0,0,0,0
260.68,1.1913,2.4754,0.076188,0,0,0,0
262.68,1.2021,2.48,0.076717,0,0,0,0
264.68,1.2138,2.4846,0.077462,0,0,0,0
266.68,1.2248,2.489,0.078177,0,0,0,0
268.68,1.2358,2.4933,0.0792,0,0,0,0
270.68,1.2473,2.498,0.080038,0,0,0,0
272.68,1.258,2.503,0.08075,0,0,0,0
274.68,1.2697,2.507,0.081431,0,0,0,0
276.68,1.281,2.511,0.082143,0,0,0,0
278.68,1.2918,2.5157,0.08307,0,0,0,0
280.68,1.3036,2.52,0.083966,0,0,0,0
282.68,1.3147,2.524,0.084614,0,0,0,0
284.68,1.326,2.5287,0.085354,0,0,0,0
286.68,1.3378,2.5327,0.086155,0,0,0,0
288.68,1.3491,2.537,0.08714,0,0,0,0
290.68,1.3603,2.541,0.08794,0,0,0,0
292.68,1.3721,2.545,0.08877,0,0,0,0
294.68,1.3829,2.549,0.089691,0,0,0,0
296.68,1.3946,2.5527,0.090458,0,0,0,0
298.68,1.4061,2.557,0.091347,0,0,0,0
300.68,1.4172,2.561,0.092327,0,0,0,0
302.68,1.429,2.564,0.09303,0,0,0,0
304.68,1.44,2.568,0.09407,0,0,0,0
306.68,1.4514,2.572,0.094926,0,0,0,0
308.68,1.4632,2.576,0.095688,0,0,0,0
310.68,1.4742,2.5793,0.096726,0,0,0,0
312.68,1.4855,2.583,0.097639,0,0,0,0
314.68,1.4974,2.5867,0.098674,0,0,0,0
316.68,1.5078,2.59,0.099586,0,0,0,0
318.68,1.5198,2.5936,0.10044,0,0,0,0
320.68,1.5309,2.597,0.10147,0,0,0,0
322.68,1.5425,2.6006,0.10244,0,0,0,0
324.68,1.5543,2.604,0.10347,0,0,0,0
326.68,1.5655,2.607,0.10429,0,0,0,0
328.68,1.5768,2.6103,0.10522,0,0,0,0
330.68,1.5886,2.614,0.10646,0,0,0,0
332.68,1.5996,2.617,0.10743,0,0,0,0
334.68,1.6118,2.6197,0.10815,0,0,0,0
336.68,1.6228,2.623,0.10917,0,0,0,0
338.68,1.6342,2.6263,0.11035,0,0,0,0
340.68,1.6461,2.629,0.11134,0,0,0,0
342.68,1.657,2.6323,0.1123,0,0,0,0
344.68,1.6688,2.635,0.11344,0,0,0,0
346.68,1.6806,2.638,0.11464,0,0,0,0
348.68,1.6917,2.641,0.11577,0,0,0,0
350.68,1.7037,2.644,0.11676,0,0,0,0
352.68,1.7155,2.6463,0.11783,0,0,0,0
354.68,1.7269,2.6493,0.11909,0,0,0,0
356.68,1.739,2.652,0.1201,0,0,0,0
358.68,1.7505,2.655,0.12135,0,0,0,0
360.68,1.7625,2.6573,0.12245,0,0,0,0
362.68,1.7745,2.66,0.12378,0,0,0,0
364.68,1.7859,2.6623,0.12509,0,0,0,0
366.68,1.798,2.665,0.12621,0,0,0,0
368.68,1.81,2.6677,0.1274,0,0,0,0
370.68,1.8216,2.6697,0.12876,0,0,0,0
372.68,1.8337,2.6723,0.13002,0,0,0,0
374.68,1.8456,2.6747,0.13135,0,0,0,0
376.68,1.8571,2.6773,0.13253,0,0,0,0
378.68,1.8695,2.6793,0.13382,0,0,0,0
380.68,1.8811,2.681,0.13523,0,0,0,0
382.68,1.8932,2.6833,0.13664,0,0,0,0
384.68,1.9053,2.686,0.13798,0,0,0,0
386.68,1.9169,2.6877,0.1395,0,0,0,0
388.68,1.9291,2.6893,0.14084,0,0,0,0
390.68,1.9405,2.692,0.1425,0,0,0,0
392.68,1.9531,2.694,0.14408,0,0,0,0
394.68,1.9654,2.696,0.14541,0,0,0,0
396.68,1.9771,2.6973,0.14718,0,0,0,0
398.68,1.9896,2.6993,0.1488,0,0,0,0
400.68,2.0017,2.701,0.15039,0,0,0,0
402.68,2.0141,2.7023,0.15204,0,0,0,0
404.68,2.0267,2.7043,0.15391,0,0,0,0
406.68,2.0385,2.7057,0.15581,0,0,0,0
408.68,2.0511,2.7077,0.15736,0,0,0,0
410.68,2.0634,2.709,0.15913,0,0,0,0
412.68,2.0758,2.7107,0.16105,0,0,0,0
414.68,2.0886,2.7117,0.16311,0,0,0,0
416.68,2.1007,2.713,0.16524,0,0,0,0
418.68,2.1133,2.7143,0.16695,0,0,0,0
420.68,2.1257,2.715,0.16888,0,0,0,0
422.68,2.1379,2.7163,0.17106,0,0,0,0
424.68,2.1507,2.7177,0.17332,0,0,0,0
426.68,2.1629,2.7183,0.17552,0,0,0,0
428.68,2.1755,2.719,0.17785,0,0,0,0
430.68,2.1883,2.72,0.18018,0,0,0,0
432.68,2.2006,2.7207,0.18265,0,0,0,0
434.68,2.2135,2.7213,0.18511,0,0,0,0
436.68,2.2262,2.722,0.18786,0,0,0,0
438.68,2.2388,2.722,0.19061,0,0,0,0
440.68,2.2523,2.723,0.19344,0,0,0,0
442.67,2.2645,2.723,0.19642,0,0,0,0
444.68,2.2777,2.723,0.19943,0,0,0,0
446.68,2.2907,2.723,0.20267,0,0,0,0
448.68,2.3034,2.723,0.20581,0,0,0,0
450.68,2.3165,2.723,0.20914,0,0,0,0
452.68,2.3294,2.722,0.21249,0,0,0,0
454.68,2.3424,2.722,0.21617,0,0,0,0
456.68,2.3552,2.721,0.21992,0,0,0,0
458.67,2.368,2.7203,0.22369,0,0,0,0
460.68,2.3813,2.719,0.22763,0,0,0,0
462.68,2.3942,2.7177,0.23206,0,0,0,0
464.68,2.4077,2.7163,0.23676,0,0,0,0
466.68,2.421,2.7143,0.24128,0,0,0,0
468.68,2.4338,2.7127,0.24607,0,0,0,0
470.68,2.4475,2.71,0.25109,0,0,0,0
472.67,2.4605,2.7073,0.25628,0,0,0,0
474.68,2.4738,2.704,0.26185,0,0,0,0
476.68,2.4876,2.7003,0.26749,0,0,0,0
478.68,2.5008,2.6964,0.27343,0,0,0,0
480.68,2.5148,2.692,0.27944,0,0,0,0
482.67,2.5282,2.687,0.28585,0,0,0,0
484.67,2.5423,2.681,0.29234,0,0,0,0
486.67,2.5564,2.6747,0.29911,0,0,0,0
488.67,2.57,2.6677,0.30623,0,0,0,0
490.68,2.5841,2.66,0.31318,0,0,0,0
492.68,2.5978,2.651,0.32013,0,0,0,0
494.68,2.612,2.6417,0.32752,0,0,0,0
496.68,2.6262,2.6314,0.33495,0,0,0,0
498.67,2.6402,2.62,0.34281,0,0,0,0
500.68,2.6548,2.608,0.35044,0,0,0,0
502.68,2.669,2.5943,0.35848,0,0,0,0
504.67,2.6834,2.58,0.36609,0,0,0,0
506.67,2.6982,2.564,0.37424,0,0,0,0
508.68,2.713,2.5473,0.38279,0,0,0,0
510.68,2.7283,2.529,0.39134,0,0,0,0
512.67,2.7428,2.5087,0.40027,0,0,0,0
514.67,2.7584,2.4867,0.4093,0,0,0,0
516.67,2.7734,2.4627,0.41906,0,0,0,0
518.67,2.7889,2.4363,0.42847,0,0,0,0
520.67,2.8049,2.4043,0.43813,0,0,0,0
521.17,2.8091,2.3944,0.441,0,0,0,0