File: lab_data/AA6014-T4_results/DATA/NT6_45_3.csv
Time[s],Displacement[mm],Force[kN],AxStrain_1,AxStrain_2,Thickness[mm],OuterWidth[mm],InnerWidth[mm]
0.62,0,-0.0050318,0,0,1.117,20,9.9496
2.62,0.001252,0.06471,0.00014699,0,0,0,0
4.62,0.002458,0.14014,0.00025797,0,0,0,0
6.62,0.003495,0.21315,0.00015999,0,0,0,0
8.62,0.003895,0.25686,8.9996e-05,0,0,0,0
10.62,0.005174,0.31043,5.1999e-05,0,0,0,0
12.62,0.006373,0.36657,2.4e-05,0,0,0,0
14.62,0.007188,0.42714,0.00026896,0,0,0,0
16.62,0.007826,0.485,0.00030195,0,0,0,0
18.62,0.008783,0.546,0.00018798,0,0,0,0
20.62,0.010018,0.60714,0.00018098,0,0,0,0
22.62,0.011324,0.67014,0.00031595,0,0,0,0
24.62,0.01313,0.73086,0.00046689,0,0,0,0
26.62,0.014356,0.792,0.00036593,0,0,0,0
28.62,0.015141,0.85429,0.00038293,0,0,0,0
30.62,0.016387,0.91315,0.00037893,0,0,0,0
32.62,0.017834,0.97485,0.0004359,0,0,0,0
34.62,0.019993,1.032,0.00027496,0,0,0,0
36.62,0.02199,1.0921,0.0006378,0,0,0,0
38.62,0.023233,1.1481,0.00053686,0,0,0,0
40.62,0.024757,1.2031,0.00047988,0,0,0,0
42.62,0.026758,1.2579,0.00064079,0,0,0,0
44.62,0.029702,1.309,0.00091258,0,0,0,0
46.62,0.033227,1.3567,0.0014659,0,0,0,0
48.62,0.037534,1.3956,0.0024809,0,0,0,0
50.62,0.043557,1.4299,0.0034022,0,0,0,0
52.62,0.051272,1.4603,0.0040508,0,0,0,0
54.62,0.058365,1.4886,0.0049467,0,0,0,0
56.62,0.065852,1.5137,0.0062117,0,0,0,0
58.62,0.074601,1.5381,0.0076923,0,0,0,0
60.62,0.083061,1.5616,0.0081715,0,0,0,0
62.62,0.091279,1.5834,0.0087248,0,0,0,0
64.62,0.10027,1.6047,0.0094631,0,0,0,0
66.62,0.10937,1.6246,0.01063,0,0,0,0
68.62,0.11772,1.6447,0.012127,0,0,0,0
70.62,0.12743,1.663,0.012797,0,0,0,0
72.62,0.13749,1.682,0.013115,0,0,0,0
74.62,0.14661,1.6997,0.013724,0,0,0,0
76.62,0.15632,1.7167,0.014913,0,0,0,0
78.62,0.16673,1.7336,0.016189,0,0,0,0
80.62,0.17598,1.75,0.017044,0,0,0,0
82.62,0.18629,1.7667,0.017348,0,0,0,0
84.62,0.1968,1.782,0.018001,0,0,0,0
86.62,0.20634,1.7984,0.018865,0,0,0,0
88.62,0.21716,1.8133,0.020146,0,0,0,0
90.62,0.22743,1.828,0.020916,0,0,0,0
92.62,0.23742,1.8427,0.021577,0,0,0,0
94.62,0.24815,1.8574,0.022174,0,0,0,0
96.62,0.25874,1.8713,0.022982,0,0,0,0
98.62,0.26922,1.8847,0.023842,0,0,0,0
100.62,0.27988,1.899,0.024868,0,0,0,0
102.62,0.29062,1.9117,0.025572,0,0,0,0
104.62,0.30054,1.925,0.026283,0,0,0,0
106.62,0.31187,1.9373,0.02722,0,0,0,0
108.62,0.32206,1.95,0.027842,0,0,0,0
110.62,0.33259,1.9624,0.028762,0,0,0,0
112.62,0.34391,1.9747,0.029376,0,0,0,0
114.62,0.35441,1.9866,0.03024,0,0,0,0
116.62,0.36538,1.9983,0.031011,0,0,0,0
118.62,0.37651,2.0097,0.031956,0,0,0,0
120.62,0.38676,2.021,0.032411,0,0,0,0
122.62,0.39786,2.0323,0.033223,0,0,0,0
124.62,0.409,2.043,0.033938,0,0,0,0
126.62,0.41953,2.0543,0.03488,0,0,0,0
128.62,0.43115,2.0647,0.035819,0,0,0,0
130.62,0.44212,2.0757,0.036499,0,0,0,0
132.62,0.45323,2.086,0.037146,0,0,0,0
134.62,0.4652,2.096,0.037987,0,0,0,0
136.62,0.47565,2.1057,0.03873,0,0,0,0
138.62,0.48675,2.1157,0.039827,0,0,0,0
140.62,0.4986,2.1257,0.040635,0,0,0,0
142.62,0.50926,2.135,0.041569,0,0,0,0
144.62,0.52093,2.1447,0.042052,0,0,0,0
146.62,0.53239,2.1537,0.04305,0,0,0,0
148.62,0.54339,2.163,0.044079,0,0,0,0
150.62,0.55516,2.172,0.045042,0,0,0,0
152.62,0.56636,2.1813,0.045972,0,0,0,0
154.62,0.57743,2.1897,0.046357,0,0,0,0
156.62,0.58986,2.1983,0.046967,0,0,0,0
158.62,0.60086,2.207,0.048119,0,0,0,0
160.62,0.61233,2.2153,0.049302,0,0,0,0
162.62,0.62437,2.2233,0.050101,0,0,0,0
164.62,0.63554,2.232,0.050708,0,0,0,0
166.62,0.64761,2.24,0.05141,0,0,0,0
168.62,0.65897,2.2473,0.052399,0,0,0,0
170.62,0.67029,2.2553,0.053578,0,0,0,0
172.62,0.68223,2.263,0.054405,0,0,0,0
174.62,0.69375,2.2707,0.055327,0,0,0,0
176.62,0.70513,2.2776,0.05574,0,0,0,0
178.62,0.71708,2.2853,0.056693,0,0,0,0
180.62,0.72865,2.2927,0.057993,0,0,0,0
182.62,0.74024,2.3,0.058722,0,0,0,0
184.62,0.75199,2.3067,0.059545,0,0,0,0
186.62,0.76293,2.314,0.0604,0,0,0,0
188.62,0.7751,2.3207,0.061316,0,0,0,0
190.62,0.78676,2.3277,0.062232,0,0,0,0
192.62,0.79787,2.334,0.06324,0,0,0,0
194.62,0.81033,2.3403,0.064062,0,0,0,0
196.62,0.82155,2.3473,0.065068,0,0,0,0
198.62,0.83296,2.3537,0.065949,0,0,0,0
200.62,0.84549,2.36,0.067081,0,0,0,0
202.62,0.85663,2.3657,0.068023,0,0,0,0
204.62,0.86901,2.3723,0.068933,0,0,0,0
206.62,0.88109,2.379,0.069748,0,0,0,0
208.62,0.89194,2.3847,0.070781,0,0,0,0
210.62,0.9046,2.3903,0.072156,0,0,0,0
212.62,0.91594,2.3963,0.072938,0,0,0,0
214.62,0.92764,2.4023,0.073842,0,0,0,0
216.62,0.94023,2.4077,0.074685,0,0,0,0
218.62,0.95161,2.4137,0.075931,0,0,0,0
220.62,0.96382,2.4197,0.076958,0,0,0,0
222.62,0.97564,2.425,0.07814,0,0,0,0
224.62,0.98731,2.43,0.079196,0,0,0,0
226.62,0.99932,2.4357,0.080065,0,0,0,0
228.62,1.0116,2.4407,0.081149,0,0,0,0
230.62,1.0232,2.446,0.082295,0,0,0,0
232.62,1.0351,2.4513,0.083315,0,0,0,0
234.62,1.047,2.456,0.084519,0,0,0,0
236.62,1.0592,2.461,0.085445,0,0,0,0
238.62,1.0717,2.4663,0.086679,0,0,0,0
240.62,1.0829,2.471,0.087726,0,0,0,0
242.62,1.096,2.476,0.088804,0,0,0,0
244.62,1.1076,2.481,0.08997,0,0,0,0
246.62,1.1193,2.4853,0.091077,0,0,0,0
248.62,1.1319,2.49,0.092364,0,0,0,0
250.62,1.1434,2.495,0.093436,0,0,0,0
252.62,1.1555,2.499,0.094599,0,0,0,0
254.62,1.1676,2.5037,0.095851,0,0,0,0
256.62,1.179,2.508,0.097131,0,0,0,0
258.62,1.1912,2.512,0.098168,0,0,0,0
260.62,1.2034,2.517,0.099567,0,0,0,0
262.62,1.215,2.52,0.10094,0,0,0,0
264.62,1.2276,2.524,0.10215,0,0,0,0
266.62,1.2385,2.529,0.10318,0,0,0,0
268.62,1.2514,2.533,0.10454,0,0,0,0
270.62,1.2642,2.5367,0.10606,0,0,0,0
272.62,1.2747,2.5407,0.10729,0,0,0,0
274.62,1.2868,2.544,0.10889,0,0,0,0
276.62,1.2993,2.548,0.10998,0,0,0,0
278.62,1.3111,2.552,0.11103,0,0,0,0
280.62,1.3235,2.555,0.11247,0,0,0,0
282.62,1.3352,2.559,0.11409,0,0,0,0
284.62,1.3475,2.5623,0.11538,0,0,0,0
286.62,1.3595,2.566,0.11688,0,0,0,0
288.62,1.3713,2.5697,0.11855,0,0,0,0
290.62,1.3837,2.5727,0.11977,0,0,0,0
292.62,1.3956,2.576,0.12114,0,0,0,0
294.62,1.408,2.579,0.12269,0,0,0,0
296.62,1.4204,2.582,0.1245,0,0,0,0
298.62,1.4319,2.585,0.12616,0,0,0,0
300.62,1.4445,2.5884,0.12764,0,0,0,0
302.62,1.4566,2.5913,0.12908,0,0,0,0
304.62,1.4684,2.5943,0.13053,0,0,0,0
306.62,1.4809,2.597,0.1325,0,0,0,0
308.62,1.4929,2.6,0.13415,0,0,0,0
310.62,1.5051,2.6023,0.13591,0,0,0,0
312.62,1.5174,2.6053,0.13752,0,0,0,0
314.62,1.5291,2.6077,0.13931,0,0,0,0
316.62,1.5419,2.61,0.14117,0,0,0,0
318.62,1.5539,2.6127,0.14327,0,0,0,0
320.62,1.5659,2.615,0.14479,0,0,0,0
322.62,1.5794,2.6177,0.14673,0,0,0,0
324.62,1.5908,2.6193,0.14873,0,0,0,0
326.62,1.6035,2.6217,0.15087,0,0,0,0
328.62,1.6161,2.624,0.15284,0,0,0,0
330.62,1.6279,2.6257,0.15479,0,0,0,0
332.62,1.6408,2.6283,0.15687,0,0,0,0
334.62,1.6528,2.6297,0.15899,0,0,0,0
336.62,1.6653,2.6317,0.16122,0,0,0,0
338.62,1.6782,2.6333,0.16339,0,0,0,0
340.62,1.6898,2.635,0.1657,0,0,0,0
342.62,1.7032,2.6367,0.16826,0,0,0,0
344.62,1.7156,2.6383,0.17072,0,0,0,0
346.62,1.7276,2.6397,0.17316,0,0,0,0
348.62,1.7405,2.641,0.17547,0,0,0,0
350.62,1.7529,2.642,0.17787,0,0,0,0
352.62,1.7661,2.6437,0.1807,0,0,0,0
354.62,1.7787,2.644,0.18373,0,0,0,0
356.62,1.7911,2.6453,0.18658,0,0,0,0
358.62,1.8048,2.646,0.18953,0,0,0,0
360.62,1.817,2.647,0.19238,0,0,0,0
362.62,1.8301,2.6477,0.19562,0,0,0,0
364.62,1.8431,2.6476,0.19899,0,0,0,0
366.62,1.8554,2.648,0.20226,0,0,0,0
368.62,1.869,2.648,0.20593,0,0,0,0
370.62,1.8814,2.648,0.20945,0,0,0,0
372.62,1.8945,2.648,0.21335,0,0,0,0
374.62,1.9077,2.6477,0.21723,0,0,0,0
376.62,1.9202,2.647,0.2212,0,0,0,0
378.62,1.9335,2.6463,0.22518,0,0,0,0
380.62,1.9464,2.6453,0.2297,0,0,0,0
382.62,1.9594,2.644,0.23426,0,0,0,0
384.62,1.9736,2.6427,0.23872,0,0,0,0
386.62,1.9858,2.6407,0.24356,0,0,0,0
388.62,1.9997,2.6387,0.24871,0,0,0,0
390.62,2.0126,2.636,0.25394,0,0,0,0
392.62,2.0258,2.633,0.25938,0,0,0,0
394.62,2.0398,2.6296,0.26489,0,0,0,0
396.62,2.0529,2.626,0.271,0,0,0,0
398.62,2.0669,2.621,0.27716,0,0,0,0
400.62,2.0805,2.6157,0.28338,0,0,0,0
402.62,2.0945,2.6097,0.28978,0,0,0,0
404.62,2.1084,2.6027,0.29636,0,0,0,0
406.62,2.1224,2.595,0.3033,0,0,0,0
408.62,2.1363,2.586,0.31047,0,0,0,0
410.62,2.15,2.576,0.31779,0,0,0,0
412.62,2.1643,2.565,0.32549,0,0,0,0
414.62,2.179,2.552,0.33275,0,0,0,0
416.62,2.1932,2.5373,0.3406,0,0,0,0
418.62,2.2081,2.5217,0.34869,0,0,0,0
420.62,2.2221,2.5037,0.35693,0,0,0,0
422.62,2.2374,2.4837,0.365,0,0,0,0
424.62,2.2526,2.4616,0.37374,0,0,0,0
426.62,2.2675,2.436,0.38248,0,0,0,0
428.62,2.2835,2.4081,0.39113,0,0,0,0
430.12,2.295,2.3809,0.39806,0,0,0,0