File: lab_data/AA6014-T4_results/DATA/NT6_00_2.csv
Time[s],Displacement[mm],Force[kN],AxStrain_1,AxStrain_2,Thickness[mm],OuterWidth[mm],InnerWidth[mm]
0.63,0,-0.0046852,0,0,1.1226,20,10
2.63,0.001731,0.063282,3.2999e-05,0,0,0,0
4.63,0.002746,0.13743,0.00011899,0,0,0,0
6.63,0.003861,0.21215,0.00016799,0,0,0,0
8.63,0.004607,0.25457,-4.0001e-05,0,0,0,0
10.63,0.00613,0.31229,0.00011499,0,0,0,0
12.63,0.00764,0.36857,0.00030395,0,0,0,0
14.63,0.008648,0.42943,0.00014799,0,0,0,0
16.63,0.009514,0.48771,0.00013399,0,0,0,0
18.63,0.010488,0.55071,0.00017498,0,0,0,0
20.63,0.011972,0.61285,0.00047289,0,0,0,0
22.63,0.013839,0.67515,0.00030895,0,0,0,0
24.63,0.015833,0.73915,0.00045989,0,0,0,0
26.63,0.016991,0.80085,0.00061381,0,0,0,0
28.63,0.01779,0.86571,0.00043291,0,0,0,0
30.63,0.019166,0.92615,0.00053686,0,0,0,0
32.63,0.020838,0.99014,0.00084864,0,0,0,0
34.63,0.023135,1.05,0.00073873,0,0,0,0
36.63,0.024958,1.112,0.00069776,0,0,0,0
38.63,0.026566,1.1714,0.00079868,0,0,0,0
40.63,0.028036,1.2299,0.0010405,0,0,0,0
42.63,0.030101,1.2879,0.0010435,0,0,0,0
44.63,0.032774,1.3429,0.0013022,0,0,0,0
46.63,0.035557,1.397,0.0016776,0,0,0,0
48.63,0.03879,1.4436,0.0022604,0,0,0,0
50.63,0.044054,1.4861,0.0027931,0,0,0,0
52.63,0.050184,1.5213,0.0034789,0,0,0,0
54.63,0.056801,1.5537,0.0044849,0,0,0,0
56.63,0.063646,1.5824,0.0057047,0,0,0,0
58.63,0.071979,1.6097,0.0069121,0,0,0,0
60.63,0.079872,1.6346,0.0075216,0,0,0,0
62.63,0.087751,1.6584,0.0080148,0,0,0,0
64.63,0.096765,1.6816,0.0087308,0,0,0,0
66.63,0.10567,1.7026,0.010214,0,0,0,0
68.63,0.11427,1.7247,0.0112,0,0,0,0
70.63,0.12373,1.7443,0.011708,0,0,0,0
72.63,0.13332,1.764,0.012001,0,0,0,0
74.63,0.1424,1.7827,0.012866,0,0,0,0
76.63,0.1523,1.8013,0.014098,0,0,0,0
78.63,0.16232,1.8193,0.015186,0,0,0,0
80.63,0.17171,1.8367,0.01561,0,0,0,0
82.63,0.18194,1.8543,0.015917,0,0,0,0
84.63,0.19221,1.8703,0.016654,0,0,0,0
86.63,0.20178,1.8877,0.017842,0,0,0,0
88.63,0.21248,1.9033,0.018656,0,0,0,0
90.63,0.22261,1.9193,0.019282,0,0,0,0
92.63,0.23249,1.9347,0.019598,0,0,0,0
94.63,0.24378,1.9496,0.020579,0,0,0,0
96.63,0.25376,1.9647,0.021282,0,0,0,0
98.63,0.26378,1.9787,0.022333,0,0,0,0
100.63,0.27486,1.9934,0.022874,0,0,0,0
102.63,0.2849,2.0073,0.023216,0,0,0,0
104.63,0.29547,2.0217,0.024009,0,0,0,0
106.63,0.30646,2.034,0.024852,0,0,0,0
108.63,0.31745,2.0477,0.0256,0,0,0,0
110.63,0.32796,2.0604,0.026533,0,0,0,0
112.63,0.33863,2.0734,0.027033,0,0,0,0
114.63,0.34886,2.086,0.02755,0,0,0,0
116.63,0.35983,2.0977,0.028398,0,0,0,0
118.63,0.37073,2.11,0.029116,0,0,0,0
120.63,0.38125,2.122,0.029768,0,0,0,0
122.63,0.39284,2.133,0.030615,0,0,0,0
124.63,0.4037,2.145,0.031136,0,0,0,0
126.63,0.41434,2.1563,0.031786,0,0,0,0
128.63,0.42629,2.167,0.032469,0,0,0,0
130.63,0.43676,2.178,0.033249,0,0,0,0
132.63,0.44792,2.1887,0.033898,0,0,0,0
134.63,0.45958,2.199,0.034514,0,0,0,0
136.63,0.46999,2.2097,0.035228,0,0,0,0
138.63,0.48154,2.2197,0.036071,0,0,0,0
140.63,0.49305,2.2297,0.036815,0,0,0,0
142.63,0.50351,2.2393,0.037494,0,0,0,0
144.63,0.51532,2.249,0.037914,0,0,0,0
146.63,0.5265,2.2587,0.038948,0,0,0,0
148.63,0.53734,2.268,0.039658,0,0,0,0
150.63,0.54903,2.2773,0.040368,0,0,0,0
152.63,0.56009,2.2863,0.040981,0,0,0,0
154.63,0.57141,2.2957,0.04156,0,0,0,0
156.63,0.58327,2.3043,0.042558,0,0,0,0
158.63,0.59411,2.313,0.043459,0,0,0,0
160.63,0.6055,2.3217,0.043845,0,0,0,0
162.63,0.61741,2.3307,0.044615,0,0,0,0
164.63,0.62811,2.339,0.045161,0,0,0,0
166.63,0.64005,2.347,0.046091,0,0,0,0
168.63,0.65126,2.355,0.04686,0,0,0,0
170.63,0.66249,2.3633,0.047725,0,0,0,0
172.63,0.6744,2.371,0.048269,0,0,0,0
174.63,0.68563,2.3786,0.048941,0,0,0,0
176.63,0.69704,2.387,0.049931,0,0,0,0
178.63,0.70902,2.394,0.050793,0,0,0,0
180.63,0.72009,2.402,0.051367,0,0,0,0
182.63,0.73215,2.409,0.052228,0,0,0,0
184.63,0.74389,2.4167,0.052897,0,0,0,0
186.63,0.75445,2.424,0.053725,0,0,0,0
188.63,0.76628,2.431,0.054552,0,0,0,0
190.63,0.77812,2.438,0.055315,0,0,0,0
192.63,0.78968,2.445,0.056235,0,0,0,0
194.63,0.80161,2.452,0.056996,0,0,0,0
196.63,0.81222,2.4587,0.057789,0,0,0,0
198.63,0.82412,2.4657,0.058675,0,0,0,0
200.63,0.83615,2.472,0.05934,0,0,0,0
202.63,0.84729,2.4787,0.060131,0,0,0,0
204.63,0.8592,2.4853,0.060921,0,0,0,0
206.63,0.87063,2.4917,0.061711,0,0,0,0
208.63,0.88218,2.4977,0.062594,0,0,0,0
210.63,0.89472,2.504,0.063476,0,0,0,0
212.63,0.90555,2.5103,0.064295,0,0,0,0
214.63,0.91779,2.5163,0.06524,0,0,0,0
216.63,0.92962,2.5223,0.066056,0,0,0,0
218.63,0.94061,2.5283,0.067061,0,0,0,0
220.63,0.95277,2.5343,0.067972,0,0,0,0
222.63,0.96447,2.5403,0.06885,0,0,0,0
224.63,0.97576,2.5457,0.069664,0,0,0,0
226.63,0.98812,2.551,0.070791,0,0,0,0
228.63,0.99922,2.5567,0.071573,0,0,0,0
230.63,1.0108,2.5627,0.072729,0,0,0,0
232.63,1.0233,2.568,0.073727,0,0,0,0
234.63,1.0343,2.5734,0.074631,0,0,0,0
236.63,1.0461,2.5787,0.075534,0,0,0,0
238.63,1.0583,2.584,0.076717,0,0,0,0
240.63,1.0695,2.589,0.077804,0,0,0,0
242.63,1.0818,2.594,0.078953,0,0,0,0
244.63,1.0932,2.599,0.079914,0,0,0,0
246.63,1.105,2.604,0.080751,0,0,0,0
248.63,1.1172,2.609,0.081803,0,0,0,0
250.63,1.1285,2.614,0.082978,0,0,0,0
252.63,1.1405,2.618,0.083997,0,0,0,0
254.63,1.152,2.623,0.085201,0,0,0,0
256.63,1.1633,2.628,0.086156,0,0,0,0
258.63,1.1756,2.6327,0.087233,0,0,0,0
260.63,1.1871,2.6366,0.088279,0,0,0,0
262.63,1.1986,2.641,0.089754,0,0,0,0
264.63,1.2106,2.6457,0.090888,0,0,0,0
266.63,1.2222,2.65,0.092205,0,0,0,0
268.63,1.2341,2.654,0.093367,0,0,0,0
270.63,1.2462,2.658,0.09453,0,0,0,0
272.63,1.2575,2.662,0.095782,0,0,0,0
274.63,1.2699,2.666,0.097092,0,0,0,0
276.63,1.2816,2.67,0.098523,0,0,0,0
278.63,1.2932,2.674,0.099862,0,0,0,0
280.63,1.3058,2.678,0.10095,0,0,0,0
282.63,1.3173,2.6817,0.1022,0,0,0,0
284.63,1.3296,2.685,0.10389,0,0,0,0
286.63,1.3419,2.689,0.10526,0,0,0,0
288.63,1.3534,2.692,0.1067,0,0,0,0
290.63,1.366,2.696,0.10806,0,0,0,0
292.63,1.3781,2.699,0.10948,0,0,0,0
294.63,1.3899,2.7023,0.11125,0,0,0,0
296.63,1.4026,2.7053,0.11284,0,0,0,0
298.63,1.414,2.7087,0.11449,0,0,0,0
300.63,1.4263,2.7117,0.11604,0,0,0,0
302.63,1.4388,2.715,0.11781,0,0,0,0
304.63,1.4504,2.717,0.11966,0,0,0,0
306.63,1.4634,2.7203,0.12108,0,0,0,0
308.63,1.4749,2.723,0.12296,0,0,0,0
310.63,1.4871,2.7257,0.12506,0,0,0,0
312.63,1.5005,2.7283,0.12678,0,0,0,0
314.63,1.5117,2.7307,0.12849,0,0,0,0
316.63,1.5247,2.733,0.13076,0,0,0,0
318.63,1.537,2.7357,0.13288,0,0,0,0
320.63,1.5488,2.7377,0.13479,0,0,0,0
322.63,1.5619,2.7397,0.13696,0,0,0,0
324.63,1.5739,2.7417,0.13942,0,0,0,0
326.63,1.5865,2.7433,0.14175,0,0,0,0
328.63,1.5994,2.745,0.14417,0,0,0,0
330.63,1.6115,2.7467,0.14649,0,0,0,0
332.63,1.6243,2.7483,0.14918,0,0,0,0
334.63,1.6366,2.7497,0.15178,0,0,0,0
336.63,1.6492,2.751,0.15446,0,0,0,0
338.63,1.6622,2.7513,0.15748,0,0,0,0
340.63,1.6744,2.753,0.1606,0,0,0,0
342.63,1.6877,2.7537,0.16354,0,0,0,0
344.63,1.7001,2.7537,0.16701,0,0,0,0
346.63,1.7129,2.754,0.17047,0,0,0,0
348.63,1.7264,2.754,0.174,0,0,0,0
350.63,1.739,2.754,0.17769,0,0,0,0
352.63,1.7524,2.754,0.18201,0,0,0,0
354.63,1.7655,2.753,0.18614,0,0,0,0
356.63,1.7781,2.752,0.19059,0,0,0,0
358.63,1.7919,2.7507,0.19508,0,0,0,0
360.63,1.8046,2.7487,0.19998,0,0,0,0
362.63,1.8184,2.746,0.20508,0,0,0,0
364.63,1.8318,2.744,0.21048,0,0,0,0
366.63,1.8449,2.7407,0.21604,0,0,0,0
368.63,1.8589,2.737,0.22195,0,0,0,0
370.63,1.8719,2.732,0.22792,0,0,0,0
372.63,1.886,2.7273,0.23424,0,0,0,0
374.63,1.8993,2.721,0.24088,0,0,0,0
376.63,1.9129,2.714,0.2473,0,0,0,0
378.63,1.9272,2.706,0.25415,0,0,0,0
380.63,1.9405,2.6977,0.26128,0,0,0,0
382.63,1.9548,2.688,0.26862,0,0,0,0
384.63,1.9687,2.6777,0.27599,0,0,0,0
386.63,1.9827,2.665,0.28367,0,0,0,0
388.63,1.9975,2.6517,0.29161,0,0,0,0
390.63,2.0114,2.637,0.29943,0,0,0,0
392.63,2.0264,2.621,0.30768,0,0,0,0
394.63,2.0407,2.6033,0.31596,0,0,0,0
396.63,2.0561,2.584,0.32466,0,0,0,0
398.63,2.0712,2.5637,0.33302,0,0,0,0
400.63,2.0863,2.5396,0.34208,0,0,0,0
402.63,2.1019,2.5146,0.35119,0,0,0,0
404.63,2.1171,2.4871,0.36039,0,0,0,0
406.63,2.1332,2.4576,0.37017,0,0,0,0
408.63,2.149,2.423,0.38021,0,0,0,0
410.63,2.1658,2.3831,0.39112,0,0,0,0
412.13,2.1796,2.3419,0.40048,0,0,0,0