File: lab_data/AA6014-T4_results/DATA/NT6_45_1.csv
Time[s],Displacement[mm],Force[kN],AxStrain_1,AxStrain_2,Thickness[mm],OuterWidth[mm],InnerWidth[mm]
0.54,0,-0.0049405,0,0,1.1176,20,9.9828
2.54,0.001484,0.063432,-7.9003e-05,0,0,0,0
4.54,0.002411,0.14043,-0.00010101,0,0,0,0
6.54,0.002662,0.19657,-4.3001e-05,0,0,0,0
8.54,0.003627,0.24714,0.00019798,0,0,0,0
10.54,0.005044,0.30514,7.3997e-05,0,0,0,0
12.54,0.006348,0.36215,0.00019498,0,0,0,0
14.54,0.007104,0.42215,-7.4003e-05,0,0,0,0
16.54,0.008041,0.48085,5.3999e-05,0,0,0,0
18.54,0.009028,0.54285,0.00023497,0,0,0,0
20.54,0.010189,0.60343,0.00017798,0,0,0,0
22.54,0.012096,0.66615,0.00025497,0,0,0,0
24.54,0.013677,0.728,0.00025897,0,0,0,0
26.54,0.014799,0.79014,0.00022797,0,0,0,0
28.54,0.015551,0.85385,0.00022198,0,0,0,0
30.54,0.016984,0.91486,0.00027196,0,0,0,0
32.54,0.018871,0.97686,0.00052686,0,0,0,0
34.54,0.020902,1.0369,0.00061381,0,0,0,0
36.54,0.022477,1.0979,0.00061081,0,0,0,0
38.54,0.02379,1.1569,0.00053386,0,0,0,0
40.54,0.02523,1.2156,0.00049388,0,0,0,0
42.54,0.027506,1.2717,0.00079169,0,0,0,0
44.54,0.030199,1.3259,0.00097652,0,0,0,0
46.54,0.033747,1.3744,0.0019251,0,0,0,0
48.54,0.038693,1.412,0.0028759,0,0,0,0
50.54,0.045474,1.4463,0.0033185,0,0,0,0
52.54,0.053078,1.4767,0.0045516,0,0,0,0
54.54,0.059984,1.5046,0.0060049,0,0,0,0
56.54,0.06786,1.5313,0.0070958,0,0,0,0
58.54,0.076404,1.5563,0.0079751,0,0,0,0
60.54,0.08436,1.5797,0.0084284,0,0,0,0
62.54,0.092737,1.6021,0.0091133,0,0,0,0
64.54,0.10224,1.6237,0.010517,0,0,0,0
66.54,0.11089,1.644,0.011887,0,0,0,0
68.54,0.11988,1.664,0.012507,0,0,0,0
70.54,0.13006,1.683,0.012889,0,0,0,0
72.54,0.13933,1.702,0.013492,0,0,0,0
74.54,0.14868,1.7203,0.014667,0,0,0,0
76.54,0.15887,1.7374,0.015824,0,0,0,0
78.54,0.16825,1.7547,0.016588,0,0,0,0
80.54,0.1782,1.7717,0.017176,0,0,0,0
82.54,0.18885,1.788,0.017884,0,0,0,0
84.54,0.19859,1.804,0.018807,0,0,0,0
86.54,0.20859,1.82,0.019937,0,0,0,0
88.54,0.21949,1.835,0.020548,0,0,0,0
90.54,0.22939,1.8503,0.021265,0,0,0,0
92.54,0.24011,1.865,0.022005,0,0,0,0
94.54,0.2507,1.88,0.022838,0,0,0,0
96.54,0.26094,1.894,0.023712,0,0,0,0
98.54,0.27174,1.908,0.024599,0,0,0,0
100.54,0.28217,1.9217,0.025143,0,0,0,0
102.54,0.2922,1.935,0.026115,0,0,0,0
104.54,0.3031,1.9483,0.026844,0,0,0,0
106.54,0.31393,1.961,0.027736,0,0,0,0
108.54,0.32417,1.974,0.028481,0,0,0,0
110.54,0.33535,1.986,0.029459,0,0,0,0
112.54,0.34619,1.9987,0.029932,0,0,0,0
114.54,0.35635,2.0103,0.030746,0,0,0,0
116.54,0.36819,2.022,0.031657,0,0,0,0
118.54,0.37855,2.0337,0.032502,0,0,0,0
120.54,0.38934,2.0453,0.033282,0,0,0,0
122.54,0.40091,2.057,0.033932,0,0,0,0
124.54,0.41145,2.0677,0.03484,0,0,0,0
126.54,0.4226,2.079,0.035456,0,0,0,0
128.54,0.43415,2.089,0.03646,0,0,0,0
130.54,0.44466,2.1,0.037075,0,0,0,0
132.54,0.45665,2.1103,0.037819,0,0,0,0
134.54,0.46748,2.1206,0.038692,0,0,0,0
136.54,0.47835,2.1307,0.03966,0,0,0,0
138.54,0.4902,2.1413,0.040627,0,0,0,0
140.54,0.5011,2.1506,0.041047,0,0,0,0
142.54,0.51225,2.1603,0.04182,0,0,0,0
144.54,0.52426,2.17,0.042721,0,0,0,0
146.54,0.53487,2.1793,0.043879,0,0,0,0
148.54,0.54664,2.1887,0.044713,0,0,0,0
150.54,0.55842,2.197,0.045356,0,0,0,0
152.54,0.56895,2.2067,0.045934,0,0,0,0
154.54,0.58108,2.215,0.047024,0,0,0,0
156.54,0.59235,2.224,0.048144,0,0,0,0
158.54,0.60357,2.2323,0.048912,0,0,0,0
160.54,0.6154,2.2407,0.049487,0,0,0,0
162.54,0.62662,2.249,0.050414,0,0,0,0
164.54,0.63827,2.2573,0.051403,0,0,0,0
166.54,0.65041,2.266,0.0522,0,0,0,0
168.54,0.66128,2.273,0.053218,0,0,0,0
170.54,0.6731,2.281,0.053887,0,0,0,0
172.54,0.68499,2.289,0.054809,0,0,0,0
174.54,0.69594,2.2966,0.055604,0,0,0,0
176.54,0.7084,2.304,0.056556,0,0,0,0
178.54,0.71962,2.311,0.057413,0,0,0,0
180.54,0.73072,2.319,0.058173,0,0,0,0
182.54,0.74304,2.326,0.059314,0,0,0,0
184.54,0.75422,2.333,0.060262,0,0,0,0
186.54,0.7662,2.3403,0.061116,0,0,0,0
188.54,0.77822,2.347,0.062126,0,0,0,0
190.54,0.78927,2.3537,0.062851,0,0,0,0
192.54,0.80167,2.3603,0.063924,0,0,0,0
194.54,0.81337,2.3673,0.064773,0,0,0,0
196.54,0.82445,2.3737,0.06578,0,0,0,0
198.54,0.83712,2.3803,0.066691,0,0,0,0
200.54,0.8488,2.3863,0.067664,0,0,0,0
202.54,0.86037,2.3927,0.068699,0,0,0,0
204.54,0.87282,2.399,0.069672,0,0,0,0
206.54,0.88399,2.4057,0.070767,0,0,0,0
208.54,0.89673,2.4113,0.071642,0,0,0,0
210.54,0.90876,2.417,0.072642,0,0,0,0
212.54,0.92031,2.4233,0.073641,0,0,0,0
214.54,0.9331,2.429,0.074577,0,0,0,0
216.54,0.94462,2.4353,0.075668,0,0,0,0
218.54,0.95651,2.4403,0.076787,0,0,0,0
220.54,0.96872,2.4463,0.077657,0,0,0,0
222.54,0.98001,2.4517,0.078652,0,0,0,0
224.54,0.99282,2.4577,0.079768,0,0,0,0
226.54,1.0047,2.4627,0.081039,0,0,0,0
228.54,1.0164,2.468,0.082153,0,0,0,0
230.54,1.0289,2.4733,0.083112,0,0,0,0
232.54,1.0404,2.4787,0.084162,0,0,0,0
234.54,1.0527,2.484,0.085273,0,0,0,0
236.54,1.0653,2.4886,0.086568,0,0,0,0
238.54,1.0767,2.4937,0.087645,0,0,0,0
240.54,1.0891,2.4987,0.088659,0,0,0,0
242.54,1.1015,2.5037,0.089949,0,0,0,0
244.54,1.1131,2.508,0.090993,0,0,0,0
246.54,1.1259,2.513,0.092095,0,0,0,0
248.54,1.1374,2.5176,0.093564,0,0,0,0
250.54,1.1498,2.522,0.094543,0,0,0,0
252.54,1.162,2.527,0.095946,0,0,0,0
254.54,1.1734,2.531,0.097105,0,0,0,0
256.54,1.1858,2.5353,0.098354,0,0,0,0
258.54,1.1979,2.54,0.09954,0,0,0,0
260.54,1.2097,2.5444,0.10079,0,0,0,0
262.54,1.2221,2.548,0.10209,0,0,0,0
264.54,1.2338,2.552,0.1033,0,0,0,0
266.54,1.2458,2.5566,0.10466,0,0,0,0
268.54,1.2581,2.5604,0.1059,0,0,0,0
270.54,1.2697,2.564,0.10708,0,0,0,0
272.54,1.2823,2.568,0.10853,0,0,0,0
274.54,1.2941,2.572,0.10991,0,0,0,0
276.54,1.306,2.576,0.1113,0,0,0,0
278.54,1.3185,2.579,0.11268,0,0,0,0
280.54,1.3302,2.583,0.11409,0,0,0,0
282.54,1.3425,2.586,0.11549,0,0,0,0
284.54,1.3551,2.59,0.11714,0,0,0,0
286.54,1.3668,2.593,0.11863,0,0,0,0
288.54,1.3796,2.5964,0.12015,0,0,0,0
290.54,1.3913,2.6,0.12149,0,0,0,0
292.54,1.4034,2.603,0.12289,0,0,0,0
294.54,1.4164,2.6063,0.12476,0,0,0,0
296.54,1.4281,2.6093,0.12662,0,0,0,0
298.54,1.4405,2.6124,0.12804,0,0,0,0
300.54,1.4526,2.6157,0.12946,0,0,0,0
302.54,1.4643,2.6183,0.1312,0,0,0,0
304.54,1.4775,2.621,0.13281,0,0,0,0
306.54,1.4893,2.624,0.13467,0,0,0,0
308.54,1.5017,2.6263,0.13642,0,0,0,0
310.54,1.5141,2.6293,0.13818,0,0,0,0
312.54,1.5265,2.632,0.14005,0,0,0,0
314.54,1.5391,2.6343,0.14198,0,0,0,0
316.54,1.5512,2.637,0.14387,0,0,0,0
318.54,1.5633,2.6393,0.14579,0,0,0,0
320.54,1.5762,2.6413,0.14773,0,0,0,0
322.54,1.5883,2.6437,0.14984,0,0,0,0
324.54,1.6011,2.646,0.1518,0,0,0,0
326.54,1.6137,2.648,0.15371,0,0,0,0
328.54,1.6256,2.6503,0.15572,0,0,0,0
330.54,1.6387,2.6517,0.15801,0,0,0,0
332.54,1.651,2.6543,0.16031,0,0,0,0
334.54,1.6632,2.6557,0.16262,0,0,0,0
336.54,1.676,2.6573,0.16507,0,0,0,0
338.54,1.6885,2.6587,0.16749,0,0,0,0
340.54,1.7016,2.6603,0.16982,0,0,0,0
342.54,1.7139,2.6617,0.17228,0,0,0,0
344.54,1.7262,2.6633,0.17471,0,0,0,0
346.54,1.7395,2.6647,0.1775,0,0,0,0
348.54,1.7516,2.6653,0.18039,0,0,0,0
350.54,1.7647,2.666,0.1831,0,0,0,0
352.54,1.7776,2.6677,0.18584,0,0,0,0
354.54,1.7902,2.668,0.18909,0,0,0,0
356.54,1.8034,2.669,0.19209,0,0,0,0
358.54,1.8157,2.6697,0.19519,0,0,0,0
360.54,1.829,2.67,0.19863,0,0,0,0
362.54,1.842,2.67,0.20196,0,0,0,0
364.54,1.8546,2.67,0.20577,0,0,0,0
366.54,1.8682,2.67,0.20954,0,0,0,0
368.54,1.8806,2.67,0.21291,0,0,0,0
370.54,1.8937,2.67,0.21686,0,0,0,0
372.54,1.907,2.6693,0.22121,0,0,0,0
374.54,1.9197,2.6683,0.22529,0,0,0,0
376.54,1.9335,2.6673,0.22959,0,0,0,0
378.54,1.9461,2.666,0.23406,0,0,0,0
380.54,1.9594,2.664,0.23878,0,0,0,0
382.54,1.9728,2.662,0.24377,0,0,0,0
384.54,1.9858,2.66,0.24907,0,0,0,0
386.54,1.9997,2.657,0.25405,0,0,0,0
388.54,2.0126,2.654,0.25971,0,0,0,0
390.54,2.0261,2.6503,0.2656,0,0,0,0
392.54,2.04,2.6463,0.27156,0,0,0,0
394.54,2.0531,2.6417,0.27776,0,0,0,0
396.54,2.0674,2.6363,0.28389,0,0,0,0
398.54,2.0808,2.6297,0.29039,0,0,0,0
400.54,2.0947,2.6224,0.2973,0,0,0,0
402.54,2.109,2.6143,0.30386,0,0,0,0
404.54,2.1225,2.605,0.311,0,0,0,0
406.54,2.1373,2.5947,0.31838,0,0,0,0
408.54,2.1511,2.5823,0.32592,0,0,0,0
410.54,2.1659,2.5697,0.33362,0,0,0,0
412.54,2.1802,2.554,0.34152,0,0,0,0
414.54,2.1944,2.5377,0.34967,0,0,0,0
416.54,2.2096,2.5186,0.35773,0,0,0,0
418.54,2.2239,2.4984,0.36615,0,0,0,0
420.54,2.2396,2.475,0.37477,0,0,0,0
422.54,2.2548,2.4483,0.38355,0,0,0,0
424.54,2.2705,2.4181,0.39311,0,0,0,0
426.04,2.283,2.3877,0.40101,0,0,0,0