File: polyN_optimization/results_exp/DP780/CH_00_1.csv
Time[s],Displacement[mm],Force[kN],AxStrain_1,AxStrain_2,Thickness[mm],OuterWidth[mm],Diameter[mm]
0,0,-0.034401,0,0,1.4976,19.967,5
3.5,4.60E-05,0.17152,-0.00042309,-0.00042309,0,0,0
7,0.000445,0.32884,-0.00015701,-0.00015701,0,0,0
10.5,0.000956,0.48148,0.00024997,0.00024997,0,0,0
14,0.000504,0.62563,-0.00039508,-0.00039508,0,0,0
17.5,0.001366,0.76653,-4.40E-05,-4.40E-05,0,0,0
21,0.001697,0.90647,1.00E-05,1.00E-05,0,0,0
24.5,0.001917,1.0393,-0.00011801,-0.00011801,0,0,0
28,0.002083,1.1655,-1.00E-05,-1.00E-05,0,0,0
31.5,0.002963,1.2872,0.00040892,0.00040892,0,0,0
35,0.003325,1.4066,0.00028096,0.00028096,0,0,0
38.5,0.003195,1.5253,0.00020298,0.00020298,0,0,0
42,0.004207,1.6392,0.00030395,0.00030395,0,0,0
45.5,0.0043,1.7525,0.00024997,0.00024997,0,0,0
49,0.004342,1.8608,0.00013899,0.00013899,0,0,0
52.5,0.005379,1.972,0.00051087,0.00051087,0,0,0
56,0.005375,2.0794,0.00022298,0.00022298,0,0,0
59.5,0.005247,2.1847,0.00034894,0.00034894,0,0,0
63,0.006538,2.2911,0.00049088,0.00049088,0,0,0
66.5,0.007018,2.3966,0.00037593,0.00037593,0,0,0
70,0.006833,2.4998,0.00035594,0.00035594,0,0,0
73.5,0.007939,2.6018,0.00072074,0.00072074,0,0,0
77,0.008156,2.7034,0.00050187,0.00050187,0,0,0
80.5,0.008178,2.8062,0.00051187,0.00051187,0,0,0
84,0.009646,2.9074,0.00094755,0.00094755,0,0,0
87.5,0.009666,3.0064,0.00068776,0.00068776,0,0,0
91,0.009237,3.1039,0.00029996,0.00029996,0,0,0
94.5,0.010481,3.2027,0.00084065,0.00084065,0,0,0
98,0.01131,3.3007,0.00088061,0.00088061,0,0,0
101.5,0.010783,3.4006,0.00087362,0.00087362,0,0,0
105,0.01197,3.5002,0.00059382,0.00059382,0,0,0
108.5,0.012832,3.595,0.0011034,0.0011034,0,0,0
112,0.012137,3.6887,0.00091458,0.00091458,0,0,0
115.5,0.013092,3.7857,0.00047589,0.00047589,0,0,0
119,0.014214,3.8815,0.0010834,0.0010834,0,0,0
122.5,0.013548,3.9756,0.0012522,0.0012522,0,0,0
126,0.013931,4.0726,0.00088161,0.00088161,0,0,0
129.5,0.015902,4.1621,0.0011184,0.0011184,0,0,0
133,0.015236,4.2563,0.0015917,0.0015917,0,0,0
136.5,0.015347,4.347,0.0010175,0.0010175,0,0,0
140,0.017013,4.4384,0.0011883,0.0011883,0,0,0
143.5,0.016685,4.5352,0.0015937,0.0015937,0,0,0
147,0.01663,4.6253,0.0010205,0.0010205,0,0,0
150.5,0.018295,4.7209,0.0012233,0.0012233,0,0,0
154,0.018643,4.8108,0.0016626,0.0016626,0,0,0
157.5,0.018316,4.9029,0.0015618,0.0015618,0,0,0
161,0.019476,4.9944,0.0012922,0.0012922,0,0,0
164.5,0.020673,5.0864,0.0015618,0.0015618,0,0,0
168,0.019976,5.1781,0.0018992,0.0018992,0,0,0
171.5,0.020461,5.2719,0.0014609,0.0014609,0,0,0
175,0.022131,5.3647,0.0016976,0.0016976,0,0,0
178.5,0.021333,5.4584,0.0020679,0.0020679,0,0,0
182,0.021582,5.5558,0.0018323,0.0018323,0,0,0
185.5,0.023352,5.6479,0.0016976,0.0016976,0,0,0
189,0.023667,5.7397,0.0020689,0.0020689,0,0,0
192.5,0.023138,5.8391,0.0021686,0.0021686,0,0,0
196,0.024603,5.9285,0.0019002,0.0019002,0,0,0
199.5,0.025698,6.0236,0.0022375,0.0022375,0,0,0
203,0.025137,6.1193,0.0027781,0.0027781,0,0,0
206.5,0.025863,6.216,0.0023742,0.0023742,0,0,0
210,0.027228,6.3086,0.0024759,0.0024759,0,0,0
213.5,0.027311,6.4062,0.002815,0.002815,0,0,0
217,0.027665,6.5019,0.002815,0.002815,0,0,0
220.5,0.028927,6.5985,0.0023113,0.0023113,0,0,0
224,0.02938,6.6975,0.0028519,0.0028519,0,0,0
227.5,0.029697,6.7975,0.0029197,0.0029197,0,0,0
231,0.030249,6.8941,0.0025148,0.0025148,0,0,0
234.5,0.031209,6.9901,0.0029197,0.0029197,0,0,0
238,0.032303,7.0921,0.0031899,0.0031899,0,0,0
241.5,0.032551,7.1905,0.003154,0.003154,0,0,0
245,0.03408,7.2896,0.0030194,0.0030194,0,0,0
248.5,0.034505,7.3908,0.003728,0.003728,0,0,0
252,0.035159,7.4926,0.003728,0.003728,0,0,0
255.5,0.035852,7.5962,0.0034909,0.0034909,0,0,0
259,0.037151,7.6987,0.0040289,0.0040289,0,0,0
262.5,0.037975,7.8038,0.0042987,0.0042987,0,0,0
266,0.038156,7.9044,0.0040976,0.0040976,0,0,0
269.5,0.039724,8.0066,0.004469,0.004469,0,0,0
273,0.040817,8.106,0.0051746,0.0051746,0,0,0
276.5,0.041066,8.2115,0.0042659,0.0042659,0,0,0
280,0.042632,8.3124,0.0046034,0.0046034,0,0,0
283.5,0.044501,8.4172,0.0056122,0.0056122,0,0,0
287,0.044344,8.5209,0.0048044,0.0048044,0,0,0
290.5,0.046179,8.6232,0.0054123,0.0054123,0,0,0
294,0.048252,8.7305,0.0064521,0.0064521,0,0,0
297.5,0.047958,8.8341,0.0057803,0.0057803,0,0,0
301,0.049963,8.9387,0.0057832,0.0057832,0,0,0
304.5,0.052031,9.0443,0.0070243,0.0070243,0,0,0
308,0.052042,9.1475,0.0065892,0.0065892,0,0,0
311.5,0.053673,9.2514,0.0064551,0.0064551,0,0,0
315,0.056286,9.3534,0.0076636,0.0076636,0,0,0
318.5,0.057073,9.4591,0.0077975,0.0077975,0,0,0
322,0.058336,9.561,0.0074968,0.0074968,0,0,0
325.5,0.060977,9.6677,0.0085027,0.0085027,0,0,0
329,0.062442,9.7736,0.0089726,0.0089726,0,0,0
332.5,0.064309,9.8795,0.0084373,0.0084373,0,0,0
336,0.066177,9.9816,0.009675,0.009675,0,0,0
339.5,0.068247,10.087,0.010343,0.010343,0,0,0
343,0.070215,10.186,0.0098117,0.0098117,0,0,0
346.5,0.07205,10.29,0.010681,0.010681,0,0,0
350,0.074458,10.393,0.011715,0.011715,0,0,0
353.5,0.077775,10.497,0.011016,0.011016,0,0,0
357,0.078902,10.596,0.011551,0.011551,0,0,0
360.5,0.081949,10.698,0.013188,0.013188,0,0,0
364,0.085166,10.798,0.012589,0.012589,0,0,0
367.5,0.086762,10.896,0.013225,0.013225,0,0,0
371,0.089979,10.998,0.014558,0.014558,0,0,0
374.5,0.093701,11.101,0.014127,0.014127,0,0,0
378,0.095464,11.198,0.015194,0.015194,0,0,0
381.5,0.099489,11.298,0.016488,0.016488,0,0,0
385,0.10281,11.399,0.016323,0.016323,0,0,0
388.5,0.10643,11.492,0.016788,0.016788,0,0,0
392,0.11018,11.586,0.018114,0.018114,0,0,0
395.5,0.11258,11.683,0.018446,0.018446,0,0,0
399,0.11762,11.778,0.019243,0.019243,0,0,0
402.5,0.12117,11.871,0.020566,0.020566,0,0,0
406,0.12408,11.963,0.02093,0.02093,0,0,0
409.5,0.12912,12.058,0.021591,0.021591,0,0,0
413,0.13301,12.151,0.022912,0.022912,0,0,0
416.5,0.13754,12.24,0.023277,0.023277,0,0,0
420,0.14153,12.329,0.024168,0.024168,0,0,0
423.5,0.14609,12.417,0.025322,0.025322,0,0,0
427,0.1519,12.507,0.026178,0.026178,0,0,0
430.5,0.15532,12.6,0.026737,0.026737,0,0,0
434,0.16073,12.687,0.028087,0.028087,0,0,0
437.5,0.16607,12.774,0.029138,0.029138,0,0,0
441,0.17114,12.861,0.030025,0.030025,0,0,0
444.5,0.17658,12.945,0.031401,0.031401,0,0,0
448,0.18104,13.035,0.032579,0.032579,0,0,0
451.5,0.18838,13.117,0.033333,0.033333,0,0,0
455,0.193,13.201,0.034772,0.034772,0,0,0
458.5,0.19898,13.285,0.035914,0.035914,0,0,0
462,0.20476,13.363,0.036894,0.036894,0,0,0
465.5,0.21091,13.443,0.03813,0.03813,0,0,0
469,0.2178,13.526,0.039397,0.039397,0,0,0
472.5,0.2227,13.607,0.040761,0.040761,0,0,0
476,0.22993,13.681,0.041896,0.041896,0,0,0
479.5,0.23604,13.76,0.043094,0.043094,0,0,0
483,0.24371,13.835,0.044485,0.044485,0,0,0
486.5,0.24925,13.908,0.0461,0.0461,0,0,0
490,0.25567,13.985,0.046937,0.046937,0,0,0
493.5,0.26341,14.058,0.048805,0.048805,0,0,0
497,0.27047,14.131,0.049995,0.049995,0,0,0
500.5,0.27763,14.203,0.050957,0.050957,0,0,0
504,0.28374,14.271,0.052724,0.052724,0,0,0
507.5,0.29202,14.341,0.05391,0.05391,0,0,0
511,0.29925,14.411,0.055062,0.055062,0,0,0
514.5,0.30688,14.479,0.05653,0.05653,0,0,0
518,0.31354,14.548,0.058062,0.058062,0,0,0
521.5,0.32165,14.616,0.059656,0.059656,0,0,0
525,0.33039,14.679,0.061183,0.061183,0,0,0
528.5,0.33792,14.747,0.062867,0.062867,0,0,0
532,0.34613,14.807,0.064514,0.064514,0,0,0
535.5,0.35333,14.868,0.066163,0.066163,0,0,0
539,0.36265,14.934,0.067806,0.067806,0,0,0
542.5,0.37025,14.995,0.069792,0.069792,0,0,0
546,0.37924,15.056,0.071431,0.071431,0,0,0
549.5,0.38626,15.114,0.073191,0.073191,0,0,0
553,0.39559,15.183,0.075106,0.075106,0,0,0
556.5,0.40447,15.235,0.077453,0.077453,0,0,0
560,0.41403,15.295,0.078704,0.078704,0,0,0
563.5,0.42254,15.35,0.080824,0.080824,0,0,0
567,0.43126,15.407,0.083502,0.083502,0,0,0
570.5,0.44058,15.465,0.084868,0.084868,0,0,0
574,0.45048,15.521,0.086976,0.086976,0,0,0
577.5,0.45993,15.575,0.089422,0.089422,0,0,0
581,0.46848,15.628,0.091182,0.091182,0,0,0
584.5,0.47821,15.683,0.09337,0.09337,0,0,0
588,0.48773,15.733,0.095463,0.095463,0,0,0
591.5,0.49841,15.785,0.097487,0.097487,0,0,0
595,0.50773,15.838,0.099998,0.099998,0,0,0
598.5,0.51783,15.887,0.10214,0.10214,0,0,0
602,0.52688,15.939,0.10412,0.10412,0,0,0
605.5,0.53783,15.989,0.10619,0.10619,0,0,0
609,0.54793,16.036,0.10858,0.10858,0,0,0
612.5,0.55931,16.085,0.11104,0.11104,0,0,0
616,0.56864,16.129,0.11291,0.11291,0,0,0
619.5,0.57972,16.182,0.11574,0.11574,0,0,0
623,0.58925,16.225,0.1183,0.1183,0,0,0
626.5,0.60151,16.273,0.12064,0.12064,0,0,0
630,0.61195,16.315,0.12399,0.12399,0,0,0
633.5,0.62357,16.362,0.12637,0.12637,0,0,0
637,0.63374,16.403,0.12908,0.12908,0,0,0
640.5,0.64523,16.448,0.13196,0.13196,0,0,0
644,0.65631,16.492,0.13486,0.13486,0,0,0
647.5,0.66885,16.534,0.13786,0.13786,0,0,0
651,0.68003,16.574,0.1403,0.1403,0,0,0
654.5,0.69226,16.612,0.14335,0.14335,0,0,0
658,0.70294,16.653,0.1464,0.1464,0,0,0
661.5,0.7149,16.694,0.14931,0.14931,0,0,0
665,0.72693,16.733,0.15251,0.15251,0,0,0
668.5,0.73953,16.772,0.15567,0.15567,0,0,0
672,0.75166,16.81,0.15879,0.15879,0,0,0
675.5,0.76416,16.845,0.16213,0.16213,0,0,0
679,0.77653,16.882,0.16603,0.16603,0,0,0
682.5,0.78856,16.921,0.1692,0.1692,0,0,0
686,0.80184,16.956,0.17319,0.17319,0,0,0
689.5,0.81454,16.989,0.17657,0.17657,0,0,0
693,0.82874,17.025,0.18025,0.18025,0,0,0
696.5,0.84124,17.06,0.18436,0.18436,0,0,0
700,0.85533,17.09,0.18773,0.18773,0,0,0
703.5,0.86743,17.126,0.19234,0.19234,0,0,0
707,0.88182,17.154,0.19621,0.19621,0,0,0
710.5,0.89511,17.188,0.19998,0.19998,0,0,0
714,0.9094,17.221,0.20382,0.20382,0,0,0
717.5,0.9243,17.248,0.20888,0.20888,0,0,0
721,0.93805,17.276,0.21293,0.21293,0,0,0
724.5,0.95272,17.302,0.21761,0.21761,0,0,0
728,0.96627,17.329,0.2219,0.2219,0,0,0
731.5,0.9812,17.356,0.22628,0.22628,0,0,0
735,0.99543,17.386,0.23112,0.23112,0,0,0
738.5,1.0109,17.41,0.23612,0.23612,0,0,0
742,1.0263,17.433,0.24059,0.24059,0,0,0
745.5,1.0423,17.459,0.24542,0.24542,0,0,0
749,1.0588,17.48,0.25085,0.25085,0,0,0
752.5,1.0732,17.501,0.25625,0.25625,0,0,0
756,1.0907,17.522,0.26106,0.26106,0,0,0
759.5,1.1067,17.538,0.26635,0.26635,0,0,0
763,1.1244,17.552,0.27235,0.27235,0,0,0
766.5,1.1415,17.559,0.27991,0.27991,0,0,0
770,1.1618,17.542,0.28732,0.28732,0,0,0
771.5,1.1731,17.506,0.2923,0.2923,0,0,0