File: polyN_optimization/results_exp/DP780/NT6_90_1.csv
Time[s],Displacement[mm],Force[kN],AxStrain_1,AxStrain_2,Thickness[mm],OuterWidth[mm],InnerWidth[mm]
0,0,-0.040258,0,0,1.4962,19.992,10.049
2.5,0.000374,0.12789,5.3999e-05,0,0,0,0
5,0.000786,0.24386,1.7e-05,0,0,0,0
7.5,0.001114,0.35267,1.3e-05,0,0,0,0
10,0.001487,0.46018,9.9995e-05,0,0,0,0
12.5,0.001214,0.55875,0.0004499,0,0,0,0
15,0.001585,0.6623,-5.7002e-05,0,0,0,0
17.5,0.00194,0.76395,3e-06,0,0,0,0
20,0.002279,0.86256,9.0996e-05,0,0,0,0
22.5,0.002809,0.96021,-0.00013201,0,0,0,0
25,0.003084,1.0596,-6.1002e-05,0,0,0,0
27.5,0.003195,1.1466,3e-06,0,0,0,0
30,0.003547,1.2352,0.00012799,0,0,0,0
32.5,0.004048,1.3236,1e-05,0,0,0,0
35,0.004512,1.4098,0.00012199,0,0,0,0
37.5,0.004371,1.4936,0.00022697,0,0,0,0
40,0.004963,1.5755,9.0996e-05,0,0,0,0
42.5,0.00514,1.657,0.00013899,0,0,0,0
45,0.006341,1.7364,0.00036193,0,0,0,0
47.5,0.006238,1.8153,0.00018998,0,0,0,0
50,0.006449,1.8957,0.0004429,0,0,0,0
52.5,0.007063,1.9731,0.00039292,0,0,0,0
55,0.008119,2.049,0.00034194,0,0,0,0
57.5,0.00782,2.123,0.00023097,0,0,0,0
60,0.007657,2.1991,0.00036193,0,0,0,0
62.5,0.008444,2.2713,0.00037593,0,0,0,0
65,0.009444,2.35,0.00010199,0,0,0,0
67.5,0.009788,2.4235,0.00051787,0,0,0,0
70,0.009736,2.4963,0.00031195,0,0,0,0
72.5,0.009953,2.5686,0.00015599,0,0,0,0
75,0.011231,2.6379,0.00038293,0,0,0,0
77.5,0.011893,2.7084,0.00023797,0,0,0,0
80,0.011457,2.7756,0.00030895,0,0,0,0
82.5,0.011076,2.8475,0.00032295,0,0,0,0
85,0.012242,2.9173,0.00056184,0,0,0,0
87.5,0.013804,2.9874,0.00049188,0,0,0,0
90,0.013332,3.0574,0.00047489,0,0,0,0
92.5,0.012751,3.1272,0.00034694,0,0,0,0
95,0.013591,3.1951,0.00037393,0,0,0,0
97.5,0.014933,3.2641,0.00047789,0,0,0,0
100,0.015482,3.3313,0.0006338,0,0,0,0
102.5,0.015223,3.4008,0.00060082,0,0,0,0
105,0.015093,3.4711,0.00046589,0,0,0,0
107.5,0.016152,3.537,0.00069476,0,0,0,0
110,0.017624,3.6068,0.0007767,0,0,0,0
112.5,0.017555,3.6683,0.00057683,0,0,0,0
115,0.016871,3.7393,0.00064479,0,0,0,0
117.5,0.017586,3.8037,0.00074572,0,0,0,0
120,0.01918,3.8694,0.00047689,0,0,0,0
122.5,0.01966,3.9371,0.00081467,0,0,0,0
125,0.019125,3.9992,0.00074772,0,0,0,0
127.5,0.018997,4.0662,0.00071375,0,0,0,0
130,0.019916,4.1276,0.00064579,0,0,0,0
132.5,0.021613,4.1946,0.00098452,0,0,0,0
135,0.022027,4.2576,0.00081567,0,0,0,0
137.5,0.021153,4.3257,0.00057983,0,0,0,0
140,0.021434,4.3898,0.00078269,0,0,0,0
142.5,0.022318,4.4519,0.00088361,0,0,0,0
145,0.023985,4.517,0.00098551,0,0,0,0
147.5,0.023723,4.5806,0.0010534,0,0,0,0
150,0.023359,4.6425,0.00088461,0,0,0,0
152.5,0.024279,4.7048,0.00074972,0,0,0,0
155,0.025741,4.7719,0.00081767,0,0,0,0
157.5,0.026189,4.8339,0.0010554,0,0,0,0
160,0.026062,4.8983,0.00081866,0,0,0,0
162.5,0.026307,4.9605,0.00088561,0,0,0,0
165,0.027059,5.0242,0.00075172,0,0,0,0
167.5,0.028148,5.0833,0.0011573,0,0,0,0
170,0.028698,5.1476,0.00098851,0,0,0,0
172.5,0.028775,5.2116,0.0010574,0,0,0,0
175,0.029088,5.2758,0.00085364,0,0,0,0
177.5,0.030042,5.3406,0.0010914,0,0,0,0
180,0.030795,5.4057,0.0012602,0,0,0,0
182.5,0.03148,5.4714,0.0010584,0,0,0,0
185,0.031895,5.5354,0.0011593,0,0,0,0
187.5,0.032478,5.5995,0.0011274,0,0,0,0
190,0.0333,5.6603,0.00092557,0,0,0,0
192.5,0.033886,5.7234,0.0013631,0,0,0,0
195,0.034741,5.7879,0.0012952,0,0,0,0
197.5,0.035291,5.8505,0.0010594,0,0,0,0
200,0.036419,5.9131,0.0013301,0,0,0,0
202.5,0.036768,5.9762,0.0014979,0,0,0,0
205,0.037624,6.0391,0.0015987,0,0,0,0
207.5,0.038783,6.1049,0.0013631,0,0,0,0
210,0.039841,6.1667,0.0015648,0,0,0,0
212.5,0.039985,6.2321,0.0015997,0,0,0,0
215,0.040672,6.2941,0.0019711,0,0,0,0
217.5,0.041763,6.3615,0.0018702,0,0,0,0
220,0.043157,6.425,0.0017355,0,0,0,0
222.5,0.044249,6.4915,0.0016706,0,0,0,0
225,0.044495,6.5563,0.0017025,0,0,0,0
227.5,0.04528,6.6203,0.001976,0,0,0,0
230,0.046678,6.6836,0.0019421,0,0,0,0
232.5,0.048989,6.7518,0.0018074,0,0,0,0
235,0.049136,6.817,0.00201,0,0,0,0
237.5,0.049385,6.8823,0.0022455,0,0,0,0
240,0.051116,6.9469,0.0023123,0,0,0,0
242.5,0.053492,7.0143,0.0021427,0,0,0,0
245,0.054513,7.0775,0.0023443,0,0,0,0
247.5,0.055064,7.1431,0.0023443,0,0,0,0
250,0.055847,7.2108,0.0028848,0,0,0,0
252.5,0.057949,7.2783,0.0026834,0,0,0,0
255,0.06002,7.3444,0.0025478,0,0,0,0
257.5,0.061311,7.4101,0.0027861,0,0,0,0
260,0.061998,7.4748,0.0031241,0,0,0,0
262.5,0.063899,7.5408,0.0032278,0,0,0,0
265,0.065837,7.6045,0.0029586,0,0,0,0
267.5,0.067469,7.6726,0.0029915,0,0,0,0
270,0.068729,7.737,0.0033942,0,0,0,0
272.5,0.071174,7.803,0.0036982,0,0,0,0
275,0.072635,7.8669,0.0035278,0,0,0,0
277.5,0.074536,7.9332,0.0035268,0,0,0,0
280,0.0762,7.9979,0.0034939,0,0,0,0
282.5,0.079047,8.0615,0.004233,0,0,0,0
285,0.081555,8.1261,0.0045377,0,0,0,0
287.5,0.082644,8.1908,0.0043027,0,0,0,0
290,0.084375,8.2543,0.0042699,0,0,0,0
292.5,0.087694,8.3185,0.0049796,0,0,0,0
295,0.090544,8.3811,0.0052482,0,0,0,0
297.5,0.092615,8.4484,0.0052174,0,0,0,0
300,0.094179,8.5069,0.0050472,0,0,0,0
302.5,0.097398,8.569,0.0053168,0,0,0,0
305,0.10038,8.635,0.0057534,0,0,0,0
307.5,0.10289,8.6969,0.0059542,0,0,0,0
310,0.10617,8.7585,0.0059194,0,0,0,0
312.5,0.10959,8.8182,0.005817,0,0,0,0
315,0.11187,8.8795,0.006622,0,0,0,0
317.5,0.11457,8.9412,0.0073956,0,0,0,0
320,0.1187,9,0.0071265,0,0,0,0
322.5,0.12253,9.0565,0.0067571,0,0,0,0
325,0.12591,9.1166,0.0073618,0,0,0,0
327.5,0.12869,9.1758,0.0082667,0,0,0,0
330,0.13258,9.2368,0.008468,0,0,0,0
332.5,0.13661,9.2948,0.0080664,0,0,0,0
335,0.14046,9.3515,0.0085702,0,0,0,0
337.5,0.14449,9.4082,0.0093759,0,0,0,0
340,0.14912,9.4653,0.010314,0,0,0,0
342.5,0.15234,9.5205,0.009779,0,0,0,0
345,0.15607,9.58,0.00978,0,0,0,0
347.5,0.16087,9.6342,0.010517,0,0,0,0
350,0.16561,9.6898,0.01142,0,0,0,0
352.5,0.1696,9.7444,0.011587,0,0,0,0
355,0.1745,9.7967,0.011221,0,0,0,0
357.5,0.17948,9.8545,0.011656,0,0,0,0
360,0.18321,9.9103,0.012721,0,0,0,0
362.5,0.18767,9.9627,0.013486,0,0,0,0
365,0.19372,10.015,0.012988,0,0,0,0
367.5,0.19883,10.068,0.013189,0,0,0,0
370,0.2035,10.122,0.014286,0,0,0,0
372.5,0.20956,10.176,0.015183,0,0,0,0
375,0.21453,10.226,0.015317,0,0,0,0
377.5,0.21923,10.278,0.015118,0,0,0,0
380,0.22522,10.329,0.015916,0,0,0,0
382.5,0.23127,10.379,0.017045,0,0,0,0
385,0.23665,10.428,0.017277,0,0,0,0
387.5,0.2424,10.478,0.017277,0,0,0,0
390,0.24855,10.527,0.017641,0,0,0,0
392.5,0.25403,10.575,0.018836,0,0,0,0
395,0.25958,10.622,0.0194,0,0,0,0
397.5,0.26637,10.667,0.019301,0,0,0,0
400,0.27242,10.719,0.0197,0,0,0,0
402.5,0.27936,10.764,0.020659,0,0,0,0
405,0.28686,10.809,0.021254,0,0,0,0
407.5,0.29268,10.858,0.021583,0,0,0,0
410,0.29877,10.902,0.021884,0,0,0,0
412.5,0.30556,10.948,0.022676,0,0,0,0
415,0.31243,10.991,0.023502,0,0,0,0
417.5,0.31898,11.036,0.024094,0,0,0,0
420,0.3272,11.079,0.024393,0,0,0,0
422.5,0.33403,11.122,0.025186,0,0,0,0
425,0.3414,11.166,0.025908,0,0,0,0
427.5,0.34904,11.211,0.026666,0,0,0,0
430,0.35566,11.253,0.027291,0,0,0,0
432.5,0.36283,11.294,0.027951,0,0,0,0
435,0.37101,11.338,0.028739,0,0,0,0
437.5,0.37842,11.378,0.029233,0,0,0,0
440,0.38667,11.418,0.03002,0,0,0,0
442.5,0.39546,11.457,0.030708,0,0,0,0
445,0.40293,11.496,0.031494,0,0,0,0
447.5,0.41117,11.536,0.032312,0,0,0,0
450,0.41963,11.575,0.033131,0,0,0,0
452.5,0.42659,11.612,0.033981,0,0,0,0
455,0.43578,11.647,0.034861,0,0,0,0
457.5,0.4443,11.685,0.035742,0,0,0,0
460,0.45268,11.721,0.036362,0,0,0,0
462.5,0.46215,11.757,0.037241,0,0,0,0
465,0.4705,11.793,0.038085,0,0,0,0
467.5,0.47966,11.828,0.038965,0,0,0,0
470,0.48889,11.86,0.040133,0,0,0,0
472.5,0.49707,11.896,0.040782,0,0,0,0
475,0.50609,11.927,0.041689,0,0,0,0
477.5,0.51532,11.959,0.042889,0,0,0,0
480,0.52414,11.992,0.044442,0,0,0,0
482.5,0.53462,12.026,0.04525,0,0,0,0
485,0.54385,12.058,0.045992,0,0,0,0
487.5,0.55382,12.086,0.046991,0,0,0,0
490,0.56423,12.115,0.04857,0,0,0,0
492.5,0.57339,12.147,0.049695,0,0,0,0
495,0.584,12.178,0.050435,0,0,0,0
497.5,0.59377,12.208,0.051656,0,0,0,0
500,0.60357,12.233,0.053162,0,0,0,0
502.5,0.61425,12.263,0.054443,0,0,0,0
505,0.62392,12.291,0.055499,0,0,0,0
507.5,0.63494,12.316,0.056489,0,0,0,0
510,0.64555,12.34,0.058277,0,0,0,0
512.5,0.65617,12.369,0.059678,0,0,0,0
515,0.66759,12.393,0.061015,0,0,0,0
517.5,0.67827,12.42,0.062222,0,0,0,0
520,0.68983,12.443,0.063872,0,0,0,0
522.5,0.70139,12.464,0.065835,0,0,0,0
525,0.7121,12.488,0.06707,0,0,0,0
527.5,0.72389,12.508,0.068489,0,0,0,0
530,0.73461,12.533,0.070035,0,0,0,0
532.5,0.74654,12.552,0.072144,0,0,0,0
535,0.75739,12.575,0.073652,0,0,0,0
537.5,0.76925,12.593,0.07519,0,0,0,0
540,0.78159,12.612,0.07713,0,0,0,0
542.5,0.79345,12.634,0.079039,0,0,0,0
545,0.80599,12.649,0.080661,0,0,0,0
547.5,0.81789,12.666,0.082591,0,0,0,0
550,0.83076,12.684,0.084797,0,0,0,0
552.5,0.84394,12.697,0.086907,0,0,0,0
555,0.85642,12.713,0.088919,0,0,0,0
557.5,0.86959,12.728,0.091204,0,0,0,0
560,0.88196,12.742,0.093485,0,0,0,0
562.5,0.89588,12.758,0.09576,0,0,0,0
565,0.90866,12.764,0.098337,0,0,0,0
567.5,0.92225,12.778,0.10063,0,0,0,0
570,0.93556,12.79,0.10347,0,0,0,0
572.5,0.94864,12.799,0.10575,0,0,0,0
575,0.96266,12.81,0.10846,0,0,0,0
577.5,0.97571,12.814,0.11106,0,0,0,0
580,0.99038,12.822,0.11402,0,0,0,0
582.5,1.0037,12.826,0.11721,0,0,0,0
585,1.0185,12.834,0.12018,0,0,0,0
587.5,1.0322,12.839,0.12422,0,0,0,0
590,1.0476,12.843,0.12786,0,0,0,0
592.5,1.0624,12.842,0.13151,0,0,0,0
595,1.0772,12.842,0.1355,0,0,0,0
597.5,1.0924,12.842,0.13962,0,0,0,0
600,1.1078,12.84,0.14335,0,0,0,0
602.5,1.1234,12.836,0.148,0,0,0,0
605,1.1388,12.83,0.15274,0,0,0,0
607.5,1.1553,12.825,0.15708,0,0,0,0
610,1.1712,12.818,0.16195,0,0,0,0
612.5,1.1874,12.806,0.16739,0,0,0,0
615,1.2033,12.793,0.1723,0,0,0,0
617.5,1.2206,12.777,0.17775,0,0,0,0
620,1.2367,12.763,0.18376,0,0,0,0
622.5,1.2541,12.744,0.18965,0,0,0,0
625,1.2708,12.722,0.19598,0,0,0,0
627.5,1.2893,12.7,0.20262,0,0,0,0
630,1.3063,12.676,0.20942,0,0,0,0
632.5,1.3249,12.645,0.21655,0,0,0,0
635,1.3427,12.61,0.22398,0,0,0,0
637.5,1.3617,12.575,0.23177,0,0,0,0
640,1.3803,12.538,0.23978,0,0,0,0
642.5,1.3995,12.492,0.24781,0,0,0,0
645,1.4187,12.446,0.25641,0,0,0,0
647.5,1.4382,12.394,0.26495,0,0,0,0
650,1.4581,12.339,0.27418,0,0,0,0
652.5,1.4781,12.277,0.28377,0,0,0,0
655,1.499,12.203,0.29384,0,0,0,0
657,1.5159,12.127,0.30271,0,0,0,0