File: Template_Auto_Cali_large_DP600/_results/NT6_00_3.csv
Time[s],Displacement[mm],Force[kN],AxStrain_1,AxStrain_2,Thickness[mm],OuterWidth[mm],InnerWidth[mm]
0,0,0.00031235,0,0,0.28659,4,2
2,2.8387e-05,0.0003234,-0.00021534,0,0,0,0
4,2.4642e-05,0.00034861,-9.9045e-05,0,0,0,0
6,0.00037443,0.0011186,-0.0002648,0,0,0,0
8,0.00048262,0.0029093,-0.00023883,0,0,0,0
10,0.00073415,0.005187,0.00030632,0,0,0,0
12,0.00094786,0.0074816,0.00038218,0,0,0,0
14,0.00098341,0.0094963,0.00018625,0,0,0,0
16,0.0011357,0.011594,-0.00012209,0,0,0,0
18,0.0012557,0.01414,0.00037037,0,0,0,0
20,0.0014676,0.017364,0.0002093,0,0,0,0
22,0.0015446,0.021269,0.00044662,0,0,0,0
24,0.0021743,0.025999,0.00022542,0,0,0,0
26,0.0019705,0.031529,0.00032263,0,0,0,0
28,0.0022827,0.037593,-9.2905e-05,0,0,0,0
30,0.00232,0.043946,0.00022938,0,0,0,0
32,0.0026546,0.050662,0.00013449,0,0,0,0
34,0.0028565,0.058027,0.00024748,0,0,0,0
36,0.0031679,0.066101,0.0001126,0,0,0,0
38.001,0.0034361,0.07447,0.00017531,0,0,0,0
40.001,0.0037145,0.082977,-6.491e-06,0,0,0,0
42,0.004045,0.091657,-6.9112e-05,0,0,0,0
43.999,0.0044233,0.10066,0.00032233,0,0,0,0
46,0.0045734,0.10972,0.00045618,0,0,0,0
48,0.0051793,0.11893,0.00044861,0,0,0,0
50,0.0053544,0.12835,0.00031928,0,0,0,0
52,0.0060191,0.13789,0.00084936,0,0,0,0
54,0.0064372,0.14761,0.00074666,0,0,0,0
56,0.0075924,0.15741,0.00086904,0,0,0,0
58,0.007227,0.16729,0.00088133,0,0,0,0
60,0.0079502,0.17717,0.00073597,0,0,0,0
62,0.0084853,0.18709,0.00098652,0,0,0,0
63.999,0.009138,0.19673,0.0014721,0,0,0,0
66,0.010007,0.20641,0.0018628,0,0,0,0
68,0.01091,0.21567,0.0017625,0,0,0,0
70,0.011747,0.22438,0.0020958,0,0,0,0
72,0.012917,0.23251,0.0027338,0,0,0,0
74,0.01416,0.23981,0.003139,0,0,0,0
76,0.015659,0.24628,0.0039648,0,0,0,0
78,0.017234,0.25213,0.0039042,0,0,0,0
80,0.018481,0.25763,0.0046046,0,0,0,0
82,0.020107,0.26277,0.0046117,0,0,0,0
84,0.021835,0.26765,0.00541,0,0,0,0
85.999,0.023426,0.27219,0.006009,0,0,0,0
87.999,0.024971,0.27656,0.0066906,0,0,0,0
90,0.026826,0.28074,0.0075354,0,0,0,0
92,0.028671,0.28486,0.008436,0,0,0,0
94.001,0.030418,0.28876,0.0092363,0,0,0,0
96,0.032269,0.29259,0.009986,0,0,0,0
98,0.034086,0.29629,0.010867,0,0,0,0
100,0.036036,0.29982,0.01213,0,0,0,0
102,0.037884,0.30319,0.012874,0,0,0,0
104,0.040189,0.30643,0.013874,0,0,0,0
106,0.041803,0.3096,0.014423,0,0,0,0
108,0.043793,0.31273,0.015599,0,0,0,0
110,0.045956,0.31569,0.017027,0,0,0,0
112,0.04771,0.3185,0.017512,0,0,0,0
114,0.049562,0.32125,0.017998,0,0,0,0
116,0.051718,0.32391,0.019179,0,0,0,0
118,0.053839,0.32649,0.020317,0,0,0,0
120,0.05591,0.32908,0.021468,0,0,0,0
122,0.057883,0.33151,0.021781,0,0,0,0
124,0.060078,0.33388,0.023135,0,0,0,0
126,0.062313,0.33621,0.023806,0,0,0,0
128,0.064445,0.33844,0.024498,0,0,0,0
130,0.06644,0.34061,0.025636,0,0,0,0
132,0.068603,0.34276,0.026619,0,0,0,0
134,0.070681,0.34483,0.027289,0,0,0,0
136,0.07285,0.34682,0.028483,0,0,0,0
138,0.075044,0.34871,0.029328,0,0,0,0
140,0.076852,0.35062,0.030456,0,0,0,0
142,0.079319,0.35246,0.031102,0,0,0,0
144,0.081531,0.35427,0.031948,0,0,0,0
146,0.083627,0.35606,0.033117,0,0,0,0
148,0.085905,0.35779,0.034405,0,0,0,0
150,0.08804,0.35945,0.035552,0,0,0,0
152,0.090117,0.36104,0.036507,0,0,0,0
154,0.092535,0.36261,0.037662,0,0,0,0
156,0.09504,0.36416,0.038598,0,0,0,0
158,0.096882,0.36565,0.039665,0,0,0,0
160,0.099095,0.3671,0.040972,0,0,0,0
162,0.10149,0.36853,0.041972,0,0,0,0
164,0.10359,0.36991,0.043199,0,0,0,0
166,0.10577,0.37126,0.044377,0,0,0,0
168,0.10776,0.37261,0.045754,0,0,0,0
170,0.11035,0.37391,0.046999,0,0,0,0
172,0.11262,0.37514,0.048518,0,0,0,0
174,0.11485,0.37639,0.049763,0,0,0,0
176,0.11707,0.37756,0.051242,0,0,0,0
178,0.11947,0.37874,0.052144,0,0,0,0
180,0.12176,0.37989,0.05386,0,0,0,0
182,0.12405,0.381,0.055204,0,0,0,0
184,0.12631,0.38205,0.056604,0,0,0,0
186,0.12867,0.38313,0.057071,0,0,0,0
188,0.1311,0.38418,0.058925,0,0,0,0
190,0.13324,0.38518,0.059745,0,0,0,0
192,0.13558,0.38614,0.061157,0,0,0,0
194,0.13801,0.38713,0.062308,0,0,0,0
196,0.14018,0.38809,0.063299,0,0,0,0
198,0.14251,0.38901,0.064499,0,0,0,0
200,0.14515,0.38985,0.066003,0,0,0,0
202,0.1474,0.3907,0.067177,0,0,0,0
204,0.14975,0.39154,0.068723,0,0,0,0
206,0.15225,0.39235,0.070159,0,0,0,0
208,0.15456,0.39313,0.071705,0,0,0,0
210,0.15689,0.39391,0.073142,0,0,0,0
212,0.15936,0.39465,0.074763,0,0,0,0
214,0.16155,0.3954,0.076237,0,0,0,0
216,0.164,0.39617,0.077556,0,0,0,0
218,0.16636,0.39684,0.079137,0,0,0,0
220,0.16871,0.3975,0.080097,0,0,0,0
222,0.17112,0.39815,0.081693,0,0,0,0
224,0.17335,0.39878,0.083276,0,0,0,0
226,0.1759,0.39941,0.085059,0,0,0,0
228,0.17838,0.40002,0.086968,0,0,0,0
230,0.18079,0.40059,0.088717,0,0,0,0
232,0.18308,0.40114,0.090641,0,0,0,0
234,0.18556,0.40168,0.092598,0,0,0,0
236,0.18788,0.4022,0.09406,0,0,0,0
238,0.19047,0.40267,0.096373,0,0,0,0
240,0.1929,0.40315,0.098196,0,0,0,0
242,0.19557,0.40362,0.10066,0,0,0,0
244,0.19783,0.40405,0.10277,0,0,0,0
246,0.20022,0.40448,0.10509,0,0,0,0
248,0.20257,0.40487,0.10705,0,0,0,0
250,0.20576,0.40524,0.1093,0,0,0,0
252,0.20755,0.40561,0.11069,0,0,0,0
254,0.21047,0.40597,0.11319,0,0,0,0
256,0.21232,0.4063,0.11532,0,0,0,0
258,0.215,0.40659,0.11725,0,0,0,0
260,0.21739,0.40687,0.11981,0,0,0,0
262,0.22,0.40714,0.12182,0,0,0,0
264,0.2225,0.40741,0.12423,0,0,0,0
266,0.22497,0.40765,0.12649,0,0,0,0
268,0.22753,0.40787,0.12892,0,0,0,0
270,0.23004,0.40807,0.13125,0,0,0,0
272,0.23256,0.40826,0.13413,0,0,0,0
274,0.23506,0.40843,0.13684,0,0,0,0
276,0.23754,0.40855,0.13973,0,0,0,0
278,0.24016,0.40866,0.14279,0,0,0,0
280,0.24271,0.40876,0.14598,0,0,0,0
282,0.24526,0.40885,0.14944,0,0,0,0
284,0.24779,0.40891,0.15277,0,0,0,0
286,0.25033,0.40895,0.15602,0,0,0,0
288,0.25297,0.40898,0.1591,0,0,0,0
290,0.25551,0.40898,0.16258,0,0,0,0
292,0.25812,0.40897,0.16593,0,0,0,0
294,0.26084,0.40896,0.16935,0,0,0,0
296,0.26319,0.40891,0.17282,0,0,0,0
298,0.26609,0.40889,0.1765,0,0,0,0
300,0.2684,0.40887,0.18041,0,0,0,0
302,0.27108,0.40883,0.18402,0,0,0,0
304,0.27359,0.40879,0.18787,0,0,0,0
306,0.2762,0.40875,0.19188,0,0,0,0
308,0.27875,0.4087,0.19634,0,0,0,0
310,0.28119,0.40866,0.20055,0,0,0,0
312,0.28405,0.40862,0.20547,0,0,0,0
314,0.28694,0.40856,0.21005,0,0,0,0
316,0.28942,0.40851,0.2148,0,0,0,0
318,0.29207,0.40845,0.21999,0,0,0,0
320,0.29477,0.40838,0.22521,0,0,0,0
322,0.29743,0.40829,0.23053,0,0,0,0
324,0.29997,0.40821,0.23574,0,0,0,0
326,0.3028,0.40811,0.24152,0,0,0,0
328,0.3055,0.40801,0.24682,0,0,0,0
330,0.30816,0.40794,0.2527,0,0,0,0
332,0.31072,0.40779,0.25852,0,0,0,0
334,0.31343,0.40758,0.26437,0,0,0,0
336,0.3161,0.40739,0.27062,0,0,0,0
338,0.31895,0.40721,0.27652,0,0,0,0
340,0.32165,0.40696,0.28272,0,0,0,0
342,0.32442,0.40666,0.28939,0,0,0,0
344,0.32739,0.40626,0.29582,0,0,0,0
346,0.33034,0.40577,0.30238,0,0,0,0
348,0.33325,0.40516,0.30849,0,0,0,0
350,0.33613,0.40447,0.31503,0,0,0,0
352,0.33898,0.40367,0.32133,0,0,0,0
354,0.34185,0.40276,0.32784,0,0,0,0
356,0.34474,0.40175,0.33466,0,0,0,0
358,0.34744,0.40064,0.34187,0,0,0,0
360,0.35029,0.39946,0.349,0,0,0,0
362,0.35306,0.39826,0.35569,0,0,0,0
364,0.35575,0.39699,0.36209,0,0,0,0
366,0.35835,0.39561,0.36862,0,0,0,0
368,0.36128,0.39417,0.37544,0,0,0,0
370,0.36422,0.39265,0.38313,0,0,0,0
372,0.36676,0.39106,0.39155,0,0,0,0
374,0.36928,0.38937,0.40091,0,0,0,0
376,0.37254,0.3876,0.40937,0,0,0,0
378,0.37535,0.38578,0.41754,0,0,0,0
380,0.37803,0.38384,0.42528,0,0,0,0
382,0.38095,0.38182,0.43338,0,0,0,0
384,0.38381,0.37968,0.4419,0,0,0,0
386,0.38667,0.37739,0.45032,0,0,0,0
388,0.38953,0.37498,0.45879,0,0,0,0
390,0.39256,0.3724,0.46763,0,0,0,0
392,0.3955,0.36969,0.47565,0,0,0,0
394,0.39851,0.36676,0.48527,0,0,0,0
396,0.40165,0.3636,0.49558,0,0,0,0
398,0.40487,0.36017,0.50504,0,0,0,0
400,0.40809,0.35635,0.51542,0,0,0,0
402,0.41178,0.35196,0.52647,0,0,0,0
403,0.415,0.34951,0.53643,0,0,0,0