File: Template_Auto_Cali_large_DP600/_results/NT6_00_1.csv
Time[s],Displacement[mm],Force[kN],AxStrain_1,AxStrain_2,Thickness[mm],OuterWidth[mm],InnerWidth[mm]
0,0,-0.0017465,0,0,0.28924,4,2
2,4.2682e-05,-0.0016562,-0.00022505,0,0,0,0
3.999,0.00039868,-0.000637,0.00028665,0,0,0,0
6,0.00048007,0.0014182,-0.00032847,0,0,0,0
7.999,0.00052035,0.002744,0.00013342,0,0,0,0
10,0.00095969,0.0043793,0.0002414,0,0,0,0
12,0.0011137,0.0080096,0.00014941,0,0,0,0
14,0.0014942,0.012656,0.00018777,0,0,0,0
16,0.001828,0.018963,0.00036623,0,0,0,0
18,0.0021469,0.027089,0.00068035,0,0,0,0
20,0.0024845,0.034858,0.00093166,0,0,0,0
22,0.0027404,0.041891,0.00087366,0,0,0,0
23.999,0.0029474,0.048956,0.00076784,0,0,0,0
26,0.0032843,0.056261,0.00099071,0,0,0,0
27.999,0.0036508,0.063622,0.0008893,0,0,0,0
29.999,0.003884,0.071017,0.0010973,0,0,0,0
31.999,0.0041932,0.078242,0.00090688,0,0,0,0
33.999,0.0043852,0.085539,0.0012734,0,0,0,0
35.999,0.0047544,0.092747,0.0014927,0,0,0,0
37.999,0.0050411,0.099949,0.0011845,0,0,0,0
40,0.0053227,0.10711,0.001351,0,0,0,0
42,0.0056842,0.11424,0.0014918,0,0,0,0
43.999,0.0060293,0.12145,0.00149,0,0,0,0
46,0.0065157,0.1289,0.0012762,0,0,0,0
48,0.0068294,0.13622,0.0018154,0,0,0,0
49.999,0.0071738,0.14418,0.0015435,0,0,0,0
52,0.0075186,0.15246,0.0017115,0,0,0,0
54,0.0079849,0.1611,0.0021459,0,0,0,0
55.999,0.0083889,0.16976,0.0021219,0,0,0,0
58,0.0089777,0.17865,0.0027935,0,0,0,0
60,0.009595,0.18762,0.0026225,0,0,0,0
62,0.010257,0.19664,0.0027059,0,0,0,0
64,0.010929,0.20582,0.0031754,0,0,0,0
66,0.011704,0.21459,0.0034701,0,0,0,0
68,0.012577,0.22355,0.0037919,0,0,0,0
69.999,0.013462,0.23229,0.0040306,0,0,0,0
72,0.014666,0.24056,0.0048514,0,0,0,0
73.999,0.015779,0.24839,0.0053718,0,0,0,0
76,0.017067,0.25571,0.0062184,0,0,0,0
78.008,0.018537,0.26232,0.0067589,0,0,0,0
79.999,0.020038,0.2684,0.007788,0,0,0,0
81.999,0.021663,0.27402,0.0092149,0,0,0,0
83.999,0.023362,0.27911,0.01011,0,0,0,0
85.999,0.025302,0.28383,0.011182,0,0,0,0
88,0.026961,0.28815,0.012136,0,0,0,0
90,0.028762,0.29223,0.013101,0,0,0,0
92,0.030741,0.2961,0.014096,0,0,0,0
94,0.032582,0.29971,0.014949,0,0,0,0
95.999,0.03453,0.30325,0.016041,0,0,0,0
97.999,0.036553,0.30669,0.017059,0,0,0,0
99.999,0.038525,0.3099,0.017907,0,0,0,0
102,0.040668,0.31295,0.018996,0,0,0,0
104,0.042525,0.31589,0.019892,0,0,0,0
106,0.044641,0.31871,0.020695,0,0,0,0
108,0.046789,0.32148,0.021734,0,0,0,0
110,0.048862,0.32406,0.022813,0,0,0,0
112,0.050915,0.32656,0.023946,0,0,0,0
114,0.052904,0.329,0.025049,0,0,0,0
116,0.055253,0.33134,0.026229,0,0,0,0
118,0.05728,0.33366,0.026837,0,0,0,0
120,0.059546,0.33591,0.027916,0,0,0,0
122,0.061635,0.33804,0.029183,0,0,0,0
124,0.063836,0.34012,0.030195,0,0,0,0
126,0.066044,0.34219,0.031468,0,0,0,0
128,0.068266,0.34411,0.03254,0,0,0,0
130,0.070421,0.34596,0.033634,0,0,0,0
132,0.072566,0.34779,0.034671,0,0,0,0
134,0.074845,0.34959,0.036003,0,0,0,0
136,0.077069,0.35128,0.036909,0,0,0,0
138,0.07932,0.35292,0.038299,0,0,0,0
140,0.081489,0.35454,0.039405,0,0,0,0
142,0.083801,0.35613,0.040664,0,0,0,0
144,0.086042,0.35767,0.041781,0,0,0,0
146,0.08825,0.35918,0.042889,0,0,0,0
148,0.090459,0.36061,0.044092,0,0,0,0
150,0.09273,0.36203,0.045325,0,0,0,0
152,0.095072,0.3634,0.046,0,0,0,0
154,0.097301,0.36474,0.047063,0,0,0,0
156,0.099518,0.36606,0.048308,0,0,0,0
158,0.10197,0.36736,0.049245,0,0,0,0
160,0.10437,0.36862,0.050444,0,0,0,0
162,0.10662,0.36982,0.051513,0,0,0,0
164,0.10885,0.37098,0.0526,0,0,0,0
166,0.1111,0.37209,0.053586,0,0,0,0
168,0.11343,0.37322,0.054425,0,0,0,0
170,0.11591,0.37433,0.056185,0,0,0,0
172,0.1182,0.37541,0.057191,0,0,0,0
174,0.12052,0.37645,0.058319,0,0,0,0
176,0.12283,0.37744,0.059578,0,0,0,0
178,0.12522,0.37841,0.060759,0,0,0,0
180,0.12755,0.37941,0.061954,0,0,0,0
182,0.12994,0.38035,0.063217,0,0,0,0
184,0.13226,0.38126,0.064503,0,0,0,0
186,0.13472,0.38214,0.065903,0,0,0,0
188,0.13712,0.383,0.06711,0,0,0,0
190,0.13948,0.38388,0.068325,0,0,0,0
192,0.14189,0.38471,0.069581,0,0,0,0
194,0.14427,0.38553,0.071501,0,0,0,0
196,0.14679,0.38631,0.072375,0,0,0,0
198,0.14902,0.38707,0.074123,0,0,0,0
200,0.15145,0.38781,0.075973,0,0,0,0
202,0.15385,0.38854,0.077455,0,0,0,0
204,0.15627,0.38926,0.078829,0,0,0,0
206,0.15868,0.38994,0.079873,0,0,0,0
208,0.16119,0.39058,0.082266,0,0,0,0
210,0.16371,0.39122,0.083416,0,0,0,0
212,0.16593,0.39184,0.084952,0,0,0,0
214,0.16843,0.39241,0.086773,0,0,0,0
216,0.17093,0.39297,0.088587,0,0,0,0
218,0.17334,0.39351,0.090247,0,0,0,0
220,0.1757,0.39404,0.0919,0,0,0,0
222,0.17812,0.39458,0.093531,0,0,0,0
224,0.18055,0.39508,0.095415,0,0,0,0
226,0.18309,0.39558,0.096904,0,0,0,0
228,0.18536,0.39608,0.099008,0,0,0,0
230,0.18782,0.39655,0.1009,0,0,0,0
232,0.19022,0.397,0.10304,0,0,0,0
234,0.19284,0.39742,0.10481,0,0,0,0
236,0.19528,0.39785,0.10675,0,0,0,0
238,0.19773,0.39827,0.10856,0,0,0,0
240,0.2002,0.39865,0.11033,0,0,0,0
242,0.20273,0.39902,0.11254,0,0,0,0
244,0.20516,0.39936,0.11472,0,0,0,0
246,0.2077,0.39969,0.11685,0,0,0,0
248,0.2102,0.40003,0.11949,0,0,0,0
250,0.21284,0.40034,0.12235,0,0,0,0
252,0.2154,0.40064,0.12492,0,0,0,0
254,0.21768,0.40091,0.12738,0,0,0,0
256,0.22036,0.40118,0.13017,0,0,0,0
258,0.22294,0.40143,0.13266,0,0,0,0
260,0.2255,0.40163,0.13522,0,0,0,0
262,0.22804,0.40183,0.13844,0,0,0,0
264,0.23064,0.40204,0.14122,0,0,0,0
266,0.23302,0.40226,0.14496,0,0,0,0
268,0.23585,0.40244,0.14825,0,0,0,0
270,0.23808,0.40256,0.15195,0,0,0,0
272,0.24052,0.4027,0.15575,0,0,0,0
274,0.24319,0.40281,0.15943,0,0,0,0
276,0.2458,0.40291,0.16313,0,0,0,0
278,0.24839,0.403,0.16692,0,0,0,0
280,0.25097,0.40304,0.17021,0,0,0,0
282,0.25352,0.4031,0.17362,0,0,0,0
284,0.25615,0.40316,0.17693,0,0,0,0
286,0.25876,0.40319,0.18031,0,0,0,0
288,0.2613,0.40321,0.18373,0,0,0,0
290,0.26382,0.40322,0.18678,0,0,0,0
292,0.26657,0.4032,0.19,0,0,0,0
294,0.26904,0.40316,0.19308,0,0,0,0
296,0.27174,0.40313,0.19633,0,0,0,0
298,0.27435,0.4031,0.19983,0,0,0,0
300,0.27694,0.40306,0.20333,0,0,0,0
302,0.27952,0.40301,0.20695,0,0,0,0
304,0.28222,0.40296,0.21094,0,0,0,0
306,0.28474,0.40291,0.21473,0,0,0,0
308,0.28732,0.40287,0.21847,0,0,0,0
310,0.29008,0.40283,0.22272,0,0,0,0
312,0.29267,0.40276,0.22622,0,0,0,0
314,0.29527,0.40269,0.23034,0,0,0,0
316,0.29782,0.40264,0.2343,0,0,0,0
318,0.30049,0.40257,0.2387,0,0,0,0
320,0.30318,0.40251,0.243,0,0,0,0
322,0.30574,0.40243,0.24741,0,0,0,0
324,0.30857,0.40236,0.25206,0,0,0,0
326,0.31114,0.40229,0.25657,0,0,0,0
328,0.31384,0.40222,0.26108,0,0,0,0
330,0.31642,0.40215,0.26608,0,0,0,0
332,0.31899,0.40206,0.27109,0,0,0,0
334,0.32186,0.40195,0.27603,0,0,0,0
336,0.32446,0.40184,0.28139,0,0,0,0
338,0.32728,0.40174,0.28705,0,0,0,0
340,0.32999,0.40161,0.29308,0,0,0,0
342,0.33262,0.4015,0.29962,0,0,0,0
344,0.3352,0.40136,0.306,0,0,0,0
346,0.33822,0.40117,0.31317,0,0,0,0
348,0.34092,0.40097,0.31987,0,0,0,0
350,0.34362,0.40075,0.32697,0,0,0,0
352,0.34648,0.40052,0.3337,0,0,0,0
354,0.34927,0.40025,0.34114,0,0,0,0
356,0.35199,0.39992,0.34879,0,0,0,0
358,0.35491,0.39952,0.35681,0,0,0,0
360,0.35789,0.39902,0.36385,0,0,0,0
362,0.36075,0.39843,0.37052,0,0,0,0
364,0.36388,0.39774,0.3768,0,0,0,0
366,0.36691,0.39693,0.38358,0,0,0,0
368,0.36998,0.39601,0.39096,0,0,0,0
370,0.37308,0.39498,0.39949,0,0,0,0
372,0.37615,0.39384,0.40864,0,0,0,0
374,0.37915,0.39258,0.41748,0,0,0,0
376,0.38203,0.39116,0.42525,0,0,0,0
378,0.38511,0.38961,0.43284,0,0,0,0
380,0.38815,0.38799,0.44024,0,0,0,0
382,0.39099,0.3863,0.44861,0,0,0,0
384,0.39391,0.38444,0.45741,0,0,0,0
386,0.39673,0.38255,0.46557,0,0,0,0
388,0.40015,0.38052,0.47296,0,0,0,0
390,0.40304,0.37834,0.48062,0,0,0,0
392,0.40595,0.37606,0.48872,0,0,0,0
394,0.40903,0.37356,0.49679,0,0,0,0
396,0.41207,0.37094,0.50527,0,0,0,0
398,0.41516,0.36813,0.5135,0,0,0,0
400,0.41823,0.36514,0.52187,0,0,0,0
402,0.42156,0.36186,0.53071,0,0,0,0
404,0.42506,0.35787,0.54147,0,0,0,0
404.5,0.42653,0.35678,0.54615,0,0,0,0