File: Template_Auto_Cali_large_DP600/_results/NT6_00_4.csv
Time[s],Displacement[mm],Force[kN],AxStrain_1,AxStrain_2,Thickness[mm],OuterWidth[mm],InnerWidth[mm]
0,0,0.0017725,0,0,0.14143,2,1
2.001,6.2231e-05,0.00193,0.00063122,0,0,0,0
4,0.0001472,0.00212,-3.3394e-05,0,0,0,0
6.001,0.00023001,0.00221,9.1201e-05,0,0,0,0
8,0.00021612,0.00224,-0.00046584,0,0,0,0
10.001,0.00030685,0.0023,0.00059662,0,0,0,0
12,0.00020252,0.0023757,6.045e-05,0,0,0,0
14,0.00021786,0.0024729,0.00042631,0,0,0,0
16,0.00015352,0.0025871,0.00075557,0,0,0,0
18,9.4655e-05,0.0027329,0.00074757,0,0,0,0
20,0.0002131,0.0029729,0.00092183,0,0,0,0
22.001,0.00018956,0.0032857,0.00047018,0,0,0,0
24,0.00022583,0.0037871,-2.2816e-05,0,0,0,0
26,0.00026029,0.0046772,0.00061313,0,0,0,0
28.001,0.000269,0.0057271,0.00020432,0,0,0,0
30,0.00037052,0.0066985,2.3323e-05,0,0,0,0
32.001,0.00050548,0.00761,0.001019,0,0,0,0
34,0.00047845,0.0085357,0.0015621,0,0,0,0
36,0.00060424,0.0095257,0.0012778,0,0,0,0
38.001,0.00058269,0.010519,0.00047599,0,0,0,0
40.001,0.00077178,0.01157,0.0010669,0,0,0,0
42,0.00078138,0.012707,0.0010847,0,0,0,0
44,0.00079025,0.013946,0.0011291,0,0,0,0
46,0.00092045,0.015313,0.00041414,0,0,0,0
48,0.0012071,0.016814,0.001181,0,0,0,0
50,0.0012549,0.018411,0.00089167,0,0,0,0
52.001,0.0012115,0.020131,0.0013437,0,0,0,0
54,0.0012685,0.02196,0.00094096,0,0,0,0
56,0.0014746,0.023943,0.00087436,0,0,0,0
58,0.0015863,0.026011,0.00062721,0,0,0,0
60,0.0018481,0.028277,0.0021512,0,0,0,0
62.001,0.0020198,0.030647,0.0015439,0,0,0,0
64,0.0021592,0.033051,0.00072967,0,0,0,0
66.001,0.0024072,0.035453,0.00072646,0,0,0,0
68,0.002504,0.037944,0.00033262,0,0,0,0
70,0.0028012,0.040451,0.00085935,0,0,0,0
72,0.0029836,0.042927,0.0011227,0,0,0,0
74,0.0033411,0.045397,0.0011164,0,0,0,0
76,0.0036418,0.047841,0.001078,0,0,0,0
78,0.0039683,0.050194,0.0011488,0,0,0,0
80,0.0043671,0.052536,0.0014055,0,0,0,0
82,0.0048418,0.054731,0.0021967,0,0,0,0
84,0.0052672,0.056786,0.0030166,0,0,0,0
86,0.005856,0.058669,0.0028941,0,0,0,0
88,0.0064225,0.060469,0.0030645,0,0,0,0
90,0.0070452,0.062109,0.003413,0,0,0,0
92.001,0.0077693,0.063604,0.0044514,0,0,0,0
94.001,0.0084346,0.064967,0.003901,0,0,0,0
96,0.0092933,0.066271,0.0045362,0,0,0,0
98,0.010098,0.067429,0.0048744,0,0,0,0
100,0.010997,0.068511,0.0053351,0,0,0,0
102,0.011786,0.069547,0.006674,0,0,0,0
104,0.012709,0.070523,0.0072997,0,0,0,0
106,0.013565,0.071436,0.0074908,0,0,0,0
108,0.014512,0.072303,0.0077296,0,0,0,0
110,0.015506,0.073176,0.0083748,0,0,0,0
112,0.016431,0.074004,0.0091046,0,0,0,0
114,0.017384,0.074751,0.0106,0,0,0,0
116,0.018344,0.075486,0.010612,0,0,0,0
118,0.019344,0.07622,0.011861,0,0,0,0
120,0.020298,0.076916,0.013049,0,0,0,0
122,0.021285,0.07759,0.014184,0,0,0,0
124,0.022365,0.07826,0.013883,0,0,0,0
126,0.023366,0.078907,0.014658,0,0,0,0
128,0.02433,0.079534,0.014858,0,0,0,0
130,0.025359,0.080113,0.015925,0,0,0,0
132,0.02633,0.080726,0.016868,0,0,0,0
134,0.027349,0.081307,0.018534,0,0,0,0
136,0.028445,0.081827,0.019011,0,0,0,0
138,0.029497,0.082346,0.019904,0,0,0,0
140,0.030568,0.082899,0.020879,0,0,0,0
142,0.031577,0.083404,0.02285,0,0,0,0
144,0.032665,0.083886,0.023607,0,0,0,0
146,0.033727,0.084364,0.025434,0,0,0,0
148,0.034814,0.084804,0.025925,0,0,0,0
150,0.035916,0.08525,0.027012,0,0,0,0
152,0.036952,0.085681,0.028392,0,0,0,0
154,0.037966,0.086093,0.028188,0,0,0,0
156,0.039156,0.08651,0.029127,0,0,0,0
158,0.040182,0.086904,0.029045,0,0,0,0
160,0.041263,0.087257,0.029361,0,0,0,0
162,0.042371,0.087633,0.029502,0,0,0,0
164,0.043457,0.088011,0.031375,0,0,0,0
166,0.044515,0.088364,0.031604,0,0,0,0
168,0.04568,0.088713,0.03252,0,0,0,0
170,0.046796,0.08907,0.033526,0,0,0,0
172,0.047998,0.089407,0.035005,0,0,0,0
174,0.04903,0.08972,0.036305,0,0,0,0
176,0.0502,0.090021,0.037485,0,0,0,0
178,0.051332,0.090297,0.038145,0,0,0,0
180,0.052487,0.090617,NaN,0,0,0,0
182,0.053626,0.09094,NaN,0,0,0,0
184,0.054842,0.091223,NaN,0,0,0,0
186,0.055986,0.0915,NaN,0,0,0,0
188,0.057167,0.091773,NaN,0,0,0,0
190,0.058336,0.092044,NaN,0,0,0,0
192,0.05943,0.092307,NaN,0,0,0,0
194,0.060593,0.09257,NaN,0,0,0,0
196,0.06176,0.0928,NaN,0,0,0,0
198,0.062944,0.09304,NaN,0,0,0,0
200,0.064076,0.09329,NaN,0,0,0,0
202,0.065236,0.093523,NaN,0,0,0,0
204,0.066369,0.093747,NaN,0,0,0,0
206,0.067623,0.093957,NaN,0,0,0,0
208,0.068769,0.094179,NaN,0,0,0,0
210,0.06997,0.094447,NaN,0,0,0,0
212,0.071127,0.094667,NaN,0,0,0,0
214,0.07229,0.094853,NaN,0,0,0,0
216,0.073493,0.09505,NaN,0,0,0,0
218,0.074689,0.095247,NaN,0,0,0,0
220,0.075906,0.095436,NaN,0,0,0,0
222,0.077039,0.09563,NaN,0,0,0,0
224,0.078081,0.095797,NaN,0,0,0,0
226,0.079426,0.09594,NaN,0,0,0,0
228,0.080644,0.09609,NaN,0,0,0,0
230,0.081601,0.096257,NaN,0,0,0,0
232,0.082977,0.096416,NaN,0,0,0,0
234,0.084211,0.09656,NaN,0,0,0,0
236,0.085456,0.096697,NaN,0,0,0,0
238,0.086548,0.096857,NaN,0,0,0,0
240,0.087798,0.097017,NaN,0,0,0,0
242,0.089012,0.097123,NaN,0,0,0,0
244,0.090266,0.09721,NaN,0,0,0,0
246,0.091473,0.097303,NaN,0,0,0,0
248,0.092712,0.097407,NaN,0,0,0,0
250,0.093857,0.09754,NaN,0,0,0,0
252,0.095174,0.097663,NaN,0,0,0,0
254,0.096361,0.097773,NaN,0,0,0,0
256,0.097621,0.097884,NaN,0,0,0,0
258,0.098969,0.097977,NaN,0,0,0,0
260,0.10012,0.098073,NaN,0,0,0,0
262,0.10135,0.09817,NaN,0,0,0,0
264,0.10263,0.09825,NaN,0,0,0,0
266,0.10382,0.098323,NaN,0,0,0,0
268,0.10514,0.09839,NaN,0,0,0,0
270,0.10633,0.09848,NaN,0,0,0,0
272,0.10757,0.09861,NaN,0,0,0,0
274,0.10886,0.098727,NaN,0,0,0,0
276,0.11009,0.09878,NaN,0,0,0,0
278,0.1114,0.098817,NaN,0,0,0,0
280,0.11265,0.098883,NaN,0,0,0,0
282,0.11391,0.09893,NaN,0,0,0,0
284,0.11511,0.098977,NaN,0,0,0,0
286,0.11638,0.09903,NaN,0,0,0,0
288,0.11762,0.099057,NaN,0,0,0,0
290,0.11888,0.09908,NaN,0,0,0,0
292,0.12017,0.099137,NaN,0,0,0,0
294,0.12141,0.099176,NaN,0,0,0,0
296,0.12262,0.099193,NaN,0,0,0,0
298,0.12402,0.099207,NaN,0,0,0,0
300,0.12519,0.099234,NaN,0,0,0,0
302,0.12652,0.099263,NaN,0,0,0,0
304,0.12778,0.099263,NaN,0,0,0,0
306,0.129,0.099247,NaN,0,0,0,0
308,0.1303,0.099247,NaN,0,0,0,0
310,0.13166,0.099257,NaN,0,0,0,0
312,0.13282,0.09926,NaN,0,0,0,0
314,0.13414,0.099256,NaN,0,0,0,0
316,0.13552,0.099267,NaN,0,0,0,0
318,0.13681,0.099257,NaN,0,0,0,0
320,0.13803,0.09919,NaN,0,0,0,0
322,0.13934,0.099157,NaN,0,0,0,0
324,0.14061,0.099167,NaN,0,0,0,0
326,0.14188,0.09915,NaN,0,0,0,0
328,0.1433,0.099116,NaN,0,0,0,0
330,0.14449,0.099087,NaN,0,0,0,0
332,0.14582,0.09907,NaN,0,0,0,0
334,0.14707,0.099057,NaN,0,0,0,0
336,0.14844,0.099037,NaN,0,0,0,0
338,0.14969,0.099013,NaN,0,0,0,0
340,0.15103,0.098993,NaN,0,0,0,0
342,0.15237,0.098973,NaN,0,0,0,0
344,0.15368,0.098963,NaN,0,0,0,0
346,0.15505,0.09894,NaN,0,0,0,0
348,0.15642,0.09891,NaN,0,0,0,0
350,0.15762,0.098877,NaN,0,0,0,0
352,0.15899,0.098853,NaN,0,0,0,0
354,0.16026,0.09883,NaN,0,0,0,0
356,0.16166,0.098803,NaN,0,0,0,0
358,0.16296,0.098777,NaN,0,0,0,0
360,0.16433,0.098753,NaN,0,0,0,0
362,0.16565,0.09872,NaN,0,0,0,0
364,0.16707,0.098693,NaN,0,0,0,0
366,0.16831,0.098643,NaN,0,0,0,0
368,0.1697,0.0986,NaN,0,0,0,0
370,0.17104,0.098574,NaN,0,0,0,0
372,0.1724,0.09853,NaN,0,0,0,0
374,0.17373,0.09849,NaN,0,0,0,0
376,0.17504,0.098464,NaN,0,0,0,0
378,0.17646,0.09841,NaN,0,0,0,0
380,0.17781,0.098353,NaN,0,0,0,0
382,0.1792,0.098293,NaN,0,0,0,0
384,0.18055,0.098217,NaN,0,0,0,0
386,0.18199,0.098137,NaN,0,0,0,0
388,0.18337,0.098057,NaN,0,0,0,0
390,0.18478,0.097953,NaN,0,0,0,0
392,0.18619,0.09784,NaN,0,0,0,0
394,0.18762,0.097713,NaN,0,0,0,0
396,0.18904,0.09757,NaN,0,0,0,0
398,0.19055,0.097407,NaN,0,0,0,0
400,0.19209,0.09722,NaN,0,0,0,0
402,0.19377,0.096993,NaN,0,0,0,0
404,0.19498,0.096743,NaN,0,0,0,0
406,0.19664,0.096474,NaN,0,0,0,0
408,0.19821,0.096143,NaN,0,0,0,0
410,0.19979,0.09574,NaN,0,0,0,0
412,0.20157,0.095291,NaN,0,0,0,0
414,0.2033,0.094736,NaN,0,0,0,0
416,0.20509,0.094114,NaN,0,0,0,0
418,0.20704,0.093384,NaN,0,0,0,0
420,0.20906,0.092499,NaN,0,0,0,0
422,0.21122,0.091386,NaN,0,0,0,0
424,0.21424,0.089798,NaN,0,0,0,0