File: LAB_DATA/AA7020-T6_results/DATA/SL_120_SH2_90_1.csv
Time[s];Displacement[mm];Force[kN];AxStrain_1;AxStrain_2;Thickness[mm];Width[mm];Inner width
0;0;0.001;0;0;1.018;20;0
1;-1.06E-03;-0.0038;0;0;0;0;0
2;-0.000194681;-0.0025;0;0;0;0;0
3;-0.001968856;0.0019;0;0;0;0;0
4.0001;-9.40E-04;-0.0012;0;0;0;0;0
5;0.00240125;0.0174;0;0;0;0;0
6;0.00793077;0.0474;0;0;0;0;0
6.9999;0.0137509;0.0752;0;0;0;0;0
7.9999;0.0188123;0.1005;0;0;0;0;0
8.9999;0.0247931;0.123;0;0;0;0;0
9.9999;0.0299482;0.1495;0;0;0;0;0
10.9999;0.0349511;0.1741;0;0;0;0;0
12.0001;0.0402582;0.202;0;0;0;0;0
13.0001;0.0460482;0.225;0;0;0;0;0
14.0001;0.0517913;0.2478;0;0;0;0;0
14.9998;0.05703257;0.2702;0;0;0;0;0
15.9998;0.0620231;0.2968;0;0;0;0;0
16.9998;0.0682365;0.3214;0;0;0;0;0
17.9998;0.0738385;0.3375;0;0;0;0;0
18.9998;0.07970473;0.3562;0;0;0;0;0
20;0.0851018;0.3815;0;0;0;0;0
20.9997;0.0907674;0.3932;0;0;0;0;0
21.9997;0.0961881;0.4118;0;0;0;0;0
22.9997;1.03E-01;0.4282;0;0;0;0;0
23.9999;0.107713;0.4478;0;0;0;0;0
24.9997;1.13E-01;0.4646;0;0;0;0;0
25.9996;0.119873;0.4756;0;0;0;0;0
26.9996;0.125908;0.4864;0;0;0;0;0
27.9998;1.32E-01;0.4981;0;0;0;0;0
28.9996;0.137721;0.5113;0;0;0;0;0
29.9996;1.43E-01;0.5192;0;0;0;0;0
30.9996;0.148921;0.5306;0;0;0;0;0
31.9996;0.155686;0.5376;0;0;0;0;0
32.9995;0.162052;0.5471;0;0;0;0;0
33.9995;1.68E-01;0.5452;0;0;0;0;0
34.9995;1.75E-01;0.561;0;0;0;0;0
35.9997;1.81E-01;0.5723;0;0;0;0;0
36.9995;1.88E-01;0.5783;0;0;0;0;0
37.9994;0.193691;0.5831;0;0;0;0;0
38.9994;1.99E-01;0.5843;0;0;0;0;0
39.9994;0.205782;0.5913;0;0;0;0;0
40.9994;0.212432;0.5954;0;0;0;0;0
41.9994;0.21867;0.6033;0;0;0;0;0
42.9993;0.225499;0.6039;0;0;0;0;0
43.9994;2.31E-01;0.6169;0;0;0;0;0
44.9993;2.38E-01;0.6191;0;0;0;0;0
45.9993;2.44E-01;0.6276;0;0;0;0;0
46.9993;2.50E-01;0.6283;0;0;0;0;0
47.9993;0.256887;0.6333;0;0;0;0;0
48.9992;2.63E-01;0.6365;0;0;0;0;0
49.9993;2.69E-01;0.6419;0;0;0;0;0
50.9992;2.76E-01;0.6472;0;0;0;0;0
51.9992;2.82E-01;0.6536;0;0;0;0;0
52.9992;0.289026;0.6573;0;0;0;0;0
53.9991;0.294925;0.6618;0;0;0;0;0
54.9991;0.301383;0.6624;0;0;0;0;0
55.9991;0.308132;0.6687;0;0;0;0;0
56.9991;3.14E-01;0.6662;0;0;0;0;0
57.9991;3.20E-01;0.6738;0;0;0;0;0
58.9991;0.326731;0.6709;0;0;0;0;0
59.9991;0.333418;0.6842;0;0;0;0;0
60.9993;0.339789;0.6867;0;0;0;0;0
61.999;3.46E-01;0.6886;0;0;0;0;0
62.999;0.352271;0.6912;0;0;0;0;0
63.999;0.358863;0.6921;0;0;0;0;0
64.9992;3.66E-01;0.6984;0;0;0;0;0
65.999;0.372094;0.7025;0;0;0;0;0
66.9989;3.78E-01;0.7051;0;0;0;0;0
67.9992;0.384505;0.7089;0;0;0;0;0
68.999;0.391083;0.7145;0;0;0;0;0
69.9989;0.397214;0.7133;0;0;0;0;0
70.9989;0.40365;0.7152;0;0;0;0;0
71.9989;0.410044;0.718;0;0;0;0;0
72.9988;4.17E-01;0.7206;0;0;0;0;0
73.9988;0.423208;0.731;0;0;0;0;0
74.9988;4.29E-01;0.7278;0;0;0;0;0
75.9988;0.435645;0.7272;0;0;0;0;0
76.9988;0.441266;0.7266;0;0;0;0;0
77.9988;0.448744;0.7376;0;0;0;0;0
78.9987;0.45544;0.7316;0;0;0;0;0
79.9987;0.461806;0.737;0;0;0;0;0
80.9987;0.467526;0.743;0;0;0;0;0
81.9987;0.475233;0.7398;0;0;0;0;0
82.9987;4.80E-01;0.7452;0;0;0;0;0
83.9987;4.87E-01;0.7509;0;0;0;0;0
84.9986;4.94E-01;0.7525;0;0;0;0;0
85.9986;5.00E-01;0.7509;0;0;0;0;0
86.9986;0.506876;0.7553;0;0;0;0;0
87.9986;5.13E-01;0.7607;0;0;0;0;0
88.9986;0.519491;0.761;0;0;0;0;0
89.9986;0.526093;0.7607;0;0;0;0;0
90.9985;0.532679;0.767;0;0;0;0;0
91.9985;5.39E-01;0.7629;0;0;0;0;0
92.9985;5.46E-01;0.7626;0;0;0;0;0
93.9985;5.52E-01;0.767;0;0;0;0;0
94.9985;0.558792;0.7686;0;0;0;0;0
95.9984;0.565584;0.7705;0;0;0;0;0
96.9987;5.72E-01;0.7765;0;0;0;0;0
97.9984;0.578124;0.7762;0;0;0;0;0
98.9986;0.585073;0.7787;0;0;0;0;0
99.9984;5.91E-01;0.7755;0;0;0;0;0
100.9984;5.98E-01;0.7812;0;0;0;0;0
101.9984;0.604427;0.7819;0;0;0;0;0
102.9983;6.11E-01;0.7796;0;0;0;0;0
103.9983;0.617305;0.7876;0;0;0;0;0
104.9983;6.24E-01;0.7901;0;0;0;0;0
105.9983;0.630315;0.7894;0;0;0;0;0
106.9983;0.63708;0.7913;0;0;0;0;0
107.9985;0.643496;0.7923;0;0;0;0;0
108.9982;0.649354;0.792;0;0;0;0;0
109.9982;0.65584;0.7973;0;0;0;0;0
110.9982;6.64E-01;0.7964;0;0;0;0;0
111.9982;6.70E-01;0.7951;0;0;0;0;0
112.9982;6.76E-01;0.7986;0;0;0;0;0
113.9981;0.682808;0.8008;0;0;0;0;0
114.9984;0.6892;0.7989;0;0;0;0;0
115.9981;0.695176;0.8027;0;0;0;0;0
116.9984;0.702108;0.8018;0;0;0;0;0
117.9983;0.708556;0.8065;0;0;0;0;0
118.9981;0.716091;0.8084;0;0;0;0;0
119.9981;0.721941;0.8141;0;0;0;0;0
120.998;0.728084;0.8109;0;0;0;0;0
121.998;0.734363;0.8144;0;0;0;0;0
122.9982;0.741239;0.8131;0;0;0;0;0
123.998;0.748364;0.815;0;0;0;0;0
124.998;7.55E-01;0.8141;0;0;0;0;0
125.9979;7.61E-01;0.8144;0;0;0;0;0
126.998;7.68E-01;0.8157;0;0;0;0;0
127.9979;0.77472;0.8141;0;0;0;0;0
128.9979;0.780747;0.8192;0;0;0;0;0
129.9981;0.787594;0.8201;0;0;0;0;0
130.9979;0.793644;0.8201;0;0;0;0;0
131.9979;8.00E-01;0.8214;0;0;0;0;0
132.9981;0.806592;0.8223;0;0;0;0;0
133.9978;0.813433;0.8214;0;0;0;0;0
134.9978;0.820395;0.8188;0;0;0;0;0
135.9978;0.826366;0.8277;0;0;0;0;0
136.998;0.833163;0.8315;0;0;0;0;0
137.9977;8.39E-01;0.8248;0;0;0;0;0
138.9977;0.84567;0.828;0;0;0;0;0
139.9977;0.852475;0.8302;0;0;0;0;0
140.9977;8.59E-01;0.8331;0;0;0;0;0
141.9977;0.865893;0.8356;0;0;0;0;0
142.9977;0.872145;0.8293;0;0;0;0;0
143.9977;0.878242;0.8384;0;0;0;0;0
144.9976;0.884437;0.8331;0;0;0;0;0
145.9976;0.892258;0.8346;0;0;0;0;0
146.9978;8.98E-01;0.828;0;0;0;0;0
147.9976;0.904908;0.8346;0;0;0;0;0
148.9976;0.911622;0.841;0;0;0;0;0
149.9975;0.918233;0.8334;0;0;0;0;0
150.9978;0.924768;0.8305;0;0;0;0;0
151.9975;0.931129;0.8365;0;0;0;0;0
152.9975;0.938083;0.8429;0;0;0;0;0
153.9975;0.945136;0.8419;0;0;0;0;0
154.9975;0.950644;0.8422;0;0;0;0;0
155.9977;0.957653;0.8435;0;0;0;0;0
156.9977;0.964014;0.847;0;0;0;0;0
157.9974;0.970373;0.8479;0;0;0;0;0
158.9974;0.977152;0.8435;0;0;0;0;0
159.9974;0.983735;0.8466;0;0;0;0;0
160.9974;9.91E-01;0.8476;0;0;0;0;0
161.9973;0.997158;0.8432;0;0;0;0;0
162.9976;1.00242;0.8511;0;0;0;0;0
163.9976;1.0095;0.8517;0;0;0;0;0
164.9973;1.01614;0.8498;0;0;0;0;0
165.9973;1.02308;0.8508;0;0;0;0;0
166.9973;1.02915;0.8549;0;0;0;0;0
167.9972;1.04E+00;0.8542;0;0;0;0;0
168.9972;1.04305;0.8517;0;0;0;0;0
169.9972;1.04889;0.8492;0;0;0;0;0
170.9972;1.05497;0.8514;0;0;0;0;0
171.9972;1.06238;0.8542;0;0;0;0;0
172.9972;1.06873;0.8574;0;0;0;0;0
173.9971;1.07E+00;0.8621;0;0;0;0;0
174.9971;1.08192;0.8504;0;0;0;0;0
175.9971;1.08843;0.8599;0;0;0;0;0
176.9971;1.09E+00;0.8596;0;0;0;0;0
177.9971;1.10154;0.8545;0;0;0;0;0
178.9971;1.10857;0.8533;0;0;0;0;0
179.9971;1.11484;0.858;0;0;0;0;0
180.997;1.12097;0.8577;0;0;0;0;0
181.997;1.12772;0.8561;0;0;0;0;0
182.997;1.13403;0.8542;0;0;0;0;0
183.997;1.14053;0.8631;0;0;0;0;0
184.997;1.14701;0.858;0;0;0;0;0
185.9969;1.15387;0.8593;0;0;0;0;0
186.997;1.15999;0.8659;0;0;0;0;0
187.9969;1.16668;0.8618;0;0;0;0;0
188.9969;1.17319;0.8669;0;0;0;0;0
189.9971;1.18E+00;0.8647;0;0;0;0;0
190.9969;1.18582;0.8703;0;0;0;0;0
191.9969;1.19211;0.8637;0;0;0;0;0
192.9968;1.19875;0.865;0;0;0;0;0
193.9968;1.20599;0.8656;0;0;0;0;0
194.9968;1.2125;0.8697;0;0;0;0;0
195.9968;1.22E+00;0.865;0;0;0;0;0
196.9968;1.22552;0.8647;0;0;0;0;0
197.9967;1.23166;0.8631;0;0;0;0;0
198.9967;1.24E+00;0.8719;0;0;0;0;0
199.9967;1.25E+00;0.8672;0;0;0;0;0
200.9967;1.25137;0.865;0;0;0;0;0
201.9967;1.25817;0.8672;0;0;0;0;0
202.9967;1.26487;0.8634;0;0;0;0;0
203.9967;1.27137;0.8659;0;0;0;0;0
204.9966;1.27714;0.8707;0;0;0;0;0
205.9969;1.28438;0.8678;0;0;0;0;0
206.9966;1.29001;0.871;0;0;0;0;0
207.9966;1.29706;0.8713;0;0;0;0;0
208.9968;1.30351;0.8688;0;0;0;0;0
209.9965;1.30992;0.8685;0;0;0;0;0
210.9968;1.31701;0.8732;0;0;0;0;0
211.9965;1.32347;0.8751;0;0;0;0;0
212.9965;1.32963;0.871;0;0;0;0;0
213.9965;1.33613;0.8675;0;0;0;0;0
214.9965;1.34276;0.8735;0;0;0;0;0
215.9965;1.34961;0.8678;0;0;0;0;0
216.9964;1.35627;0.871;0;0;0;0;0
217.9964;1.36276;0.8748;0;0;0;0;0
218.9964;1.36969;0.8757;0;0;0;0;0
219.9964;1.38E+00;0.8738;0;0;0;0;0
220.9964;1.38214;0.8776;0;0;0;0;0
221.9966;1.38901;0.8741;0;0;0;0;0
222.9963;1.39535;0.871;0;0;0;0;0
223.9963;1.40244;0.8754;0;0;0;0;0
224.9963;1.40878;0.876;0;0;0;0;0
225.9963;1.41513;0.8782;0;0;0;0;0
226.9963;1.42314;0.8817;0;0;0;0;0
227.9965;1.42861;0.8751;0;0;0;0;0
228.9965;1.43443;0.8811;0;0;0;0;0
229.9962;1.44128;0.8776;0;0;0;0;0
230.9962;1.45E+00;0.8745;0;0;0;0;0
231.9962;1.45423;0.8817;0;0;0;0;0
232.9962;1.46109;0.8751;0;0;0;0;0
233.9961;1.46721;0.8779;0;0;0;0;0
234.9962;1.47374;0.8786;0;0;0;0;0
235.9964;1.48101;0.8795;0;0;0;0;0
236.9963;1.48685;0.8767;0;0;0;0;0
237.9961;1.49235;0.8779;0;0;0;0;0
238.9961;1.50016;0.8817;0;0;0;0;0
239.9961;1.51E+00;0.871;0;0;0;0;0
240.9961;1.51356;0.882;0;0;0;0;0
241.996;1.52E+00;0.8751;0;0;0;0;0
242.996;1.5264;0.8801;0;0;0;0;0
243.996;1.53243;0.8726;0;0;0;0;0
244.9962;1.53957;0.8798;0;0;0;0;0
245.9959;1.5459;0.876;0;0;0;0;0
246.9959;1.55261;0.876;0;0;0;0;0
247.9959;1.55974;0.8656;0;0;0;0;0
248.9959;1.5666;0.8637;0;0;0;0;0
249.4959;1.56987;0.8606;0;0;0;0;0