File: LAB_DATA/AA7020-T6_results/DATA/SL_210_SH2_90_1.csv
Time[s];Displacement[mm];Force[kN];AxStrain_1;AxStrain_2;Thickness[mm];Width[mm];Inner width
0;0;-0.0003;0;0;1.022;20;0
0.75;8.86E-06;0.0007;0;0;0;0;0
1.75;0.000914084;0.0019;0;0;0;0;0
2.7501;0.000643166;0.0054;0;0;0;0;0
3.7502;4.26E-03;0.0029;0;0;0;0;0
4.7499;0.001337635;0.0051;0;0;0;0;0
5.7499;0.00586325;0.0269;0;0;0;0;0
6.7501;0.0112632;0.0496;0;0;0;0;0
7.7502;0.0171468;0.0759;0;0;0;0;0
8.7501;0.0217806;0.0967;0;0;0;0;0
9.7498;0.0272883;0.1176;0;0;0;0;0
10.7498;0.0331169;0.1425;0;0;0;0;0
11.7498;0.0383226;0.1656;0;0;0;0;0
12.7499;0.04503775;0.1877;0;0;0;0;0
13.7498;0.049788;0.207;0;0;0;0;0
14.7499;0.0556289;0.2222;0;0;0;0;0
15.75;0.0612616;0.2449;0;0;0;0;0
16.75;0.0667103;0.2557;0;0;0;0;0
17.7498;0.0727775;0.2765;0;0;0;0;0
18.7497;0.0791022;0.2904;0;0;0;0;0
19.7497;0.0856491;0.3037;0;0;0;0;0
20.7497;0.0910815;0.3164;0;0;0;0;0
21.7497;0.0973815;0.3322;0;0;0;0;0
22.7497;1.03E-01;0.3388;0;0;0;0;0
23.7496;0.10938;0.3397;0;0;0;0;0
24.7496;1.15E-01;0.3502;0;0;0;0;0
25.7496;0.121735;0.3581;0;0;0;0;0
26.7496;0.128967;0.3634;0;0;0;0;0
27.7496;1.35E-01;0.3761;0;0;0;0;0
28.7497;0.141269;0.3792;0;0;0;0;0
29.7496;1.48E-01;0.3865;0;0;0;0;0
30.7495;0.153089;0.39;0;0;0;0;0
31.7495;0.159371;0.3887;0;0;0;0;0
32.7495;0.16533;0.3985;0;0;0;0;0
33.7495;1.73E-01;0.4109;0;0;0;0;0
34.7494;1.79E-01;0.4112;0;0;0;0;0
35.7494;1.85E-01;0.4124;0;0;0;0;0
36.7494;1.92E-01;0.42;0;0;0;0;0
37.7494;0.198621;0.4251;0;0;0;0;0
38.7494;2.04E-01;0.4276;0;0;0;0;0
39.7493;0.211315;0.4336;0;0;0;0;0
40.7493;0.217489;0.4339;0;0;0;0;0
41.7493;0.223826;0.439;0;0;0;0;0
42.7494;0.230625;0.4466;0;0;0;0;0
43.7493;2.37E-01;0.4443;0;0;0;0;0
44.7494;2.43E-01;0.4519;0;0;0;0;0
45.7492;2.51E-01;0.45;0;0;0;0;0
46.7492;2.57E-01;0.4627;0;0;0;0;0
47.7495;0.263116;0.4592;0;0;0;0;0
48.7494;2.70E-01;0.4662;0;0;0;0;0
49.7491;2.75E-01;0.4706;0;0;0;0;0
50.7492;2.82E-01;0.4658;0;0;0;0;0
51.7494;2.89E-01;0.4718;0;0;0;0;0
52.7494;0.294901;0.4753;0;0;0;0;0
53.7495;0.301825;0.4829;0;0;0;0;0
54.7492;0.307989;0.4861;0;0;0;0;0
55.7491;0.31374;0.4902;0;0;0;0;0
56.749;3.20E-01;0.487;0;0;0;0;0
57.7493;3.27E-01;0.4949;0;0;0;0;0
58.749;0.333549;0.499;0;0;0;0;0
59.749;0.340132;0.4949;0;0;0;0;0
60.749;0.347257;0.4974;0;0;0;0;0
61.749;3.54E-01;0.5053;0;0;0;0;0
62.7492;0.36025;0.5107;0;0;0;0;0
63.7489;0.366533;0.5129;0;0;0;0;0
64.7489;3.73E-01;0.5098;0;0;0;0;0
65.7491;0.379519;0.5142;0;0;0;0;0
66.7489;3.86E-01;0.518;0;0;0;0;0
67.7489;0.392161;0.5186;0;0;0;0;0
68.7489;0.399507;0.5208;0;0;0;0;0
69.7488;0.405133;0.5281;0;0;0;0;0
70.7488;0.411157;0.5265;0;0;0;0;0
71.7488;0.418807;0.5265;0;0;0;0;0
72.7488;4.25E-01;0.5344;0;0;0;0;0
73.749;0.432047;0.5303;0;0;0;0;0
74.7487;4.39E-01;0.5366;0;0;0;0;0
75.7487;0.445515;0.5439;0;0;0;0;0
76.7487;0.451293;0.5392;0;0;0;0;0
77.7488;0.45788;0.5373;0;0;0;0;0
78.7489;0.464327;0.5433;0;0;0;0;0
79.7486;0.470306;0.5458;0;0;0;0;0
80.7489;0.477421;0.5499;0;0;0;0;0
81.7486;0.484214;0.5505;0;0;0;0;0
82.7487;4.90E-01;0.5496;0;0;0;0;0
83.7488;4.97E-01;0.561;0;0;0;0;0
84.7485;5.04E-01;0.5619;0;0;0;0;0
85.7488;5.10E-01;0.561;0;0;0;0;0
86.7485;0.516473;0.5638;0;0;0;0;0
87.7488;5.23E-01;0.5613;0;0;0;0;0
88.7485;0.529403;0.5685;0;0;0;0;0
89.7486;0.536692;0.5644;0;0;0;0;0
90.7484;0.542761;0.5704;0;0;0;0;0
91.7484;5.49E-01;0.5698;0;0;0;0;0
92.7485;5.56E-01;0.5739;0;0;0;0;0
93.7486;5.62E-01;0.5711;0;0;0;0;0
94.7484;0.569284;0.5723;0;0;0;0;0
95.7484;0.576063;0.5802;0;0;0;0;0
96.7484;5.81E-01;0.5736;0;0;0;0;0
97.7486;0.588317;0.578;0;0;0;0;0
98.7483;0.595599;0.5787;0;0;0;0;0
99.7483;6.02E-01;0.5802;0;0;0;0;0
100.7483;6.09E-01;0.5837;0;0;0;0;0
101.7483;0.615118;0.5812;0;0;0;0;0
102.7483;6.22E-01;0.5872;0;0;0;0;0
103.7485;0.628452;0.5894;0;0;0;0;0
104.7482;6.35E-01;0.5922;0;0;0;0;0
105.7482;0.64062;0.5878;0;0;0;0;0
106.7482;0.648429;0.5935;0;0;0;0;0
107.7485;0.65407;0.5872;0;0;0;0;0
108.7482;0.661141;0.5935;0;0;0;0;0
109.7481;0.666976;0.5935;0;0;0;0;0
110.7481;6.74E-01;0.5986;0;0;0;0;0
111.7483;6.81E-01;0.5929;0;0;0;0;0
112.7482;6.87E-01;0.5979;0;0;0;0;0
113.7481;0.693664;0.5979;0;0;0;0;0
114.7483;0.699803;0.5989;0;0;0;0;0
115.748;0.706266;0.5957;0;0;0;0;0
116.748;0.713428;0.5998;0;0;0;0;0
117.7483;0.720616;0.6008;0;0;0;0;0
118.748;0.726865;0.6014;0;0;0;0;0
119.7479;0.730978;0.6033;0;0;0;0;0
120.7479;0.739787;0.6036;0;0;0;0;0
121.7479;0.746541;0.6027;0;0;0;0;0
122.748;0.753032;0.6046;0;0;0;0;0
123.7479;0.760107;0.6039;0;0;0;0;0
124.7478;7.67E-01;0.6014;0;0;0;0;0
125.7478;7.73E-01;0.6062;0;0;0;0;0
126.7478;7.80E-01;0.6103;0;0;0;0;0
127.7479;0.7864699;0.6087;0;0;0;0;0
128.7478;0.792817;0.6074;0;0;0;0;0
129.7478;0.799068;0.6093;0;0;0;0;0
130.7478;0.806368;0.6087;0;0;0;0;0
131.7477;8.13E-01;0.6128;0;0;0;0;0
132.7478;0.820882;0.608;0;0;0;0;0
133.7477;0.826162;0.6125;0;0;0;0;0
134.7477;0.833592;0.608;0;0;0;0;0
135.7479;0.840882;0.6062;0;0;0;0;0
136.7477;0.847039;0.6112;0;0;0;0;0
137.7477;8.53E-01;0.6109;0;0;0;0;0
138.7476;0.85972;0.6109;0;0;0;0;0
139.7478;0.86684;0.6087;0;0;0;0;0
140.7476;8.73E-01;0.6103;0;0;0;0;0
141.7476;0.879608;0.6103;0;0;0;0;0
142.7479;0.886631;0.6122;0;0;0;0;0
143.7475;0.892887;0.6109;0;0;0;0;0
144.7476;0.899365;0.6115;0;0;0;0;0
145.7475;0.906837;0.6062;0;0;0;0;0
146.7475;9.13E-01;0.6109;0;0;0;0;0
147.7476;0.919671;0.6125;0;0;0;0;0
148.7475;0.926146;0.6049;0;0;0;0;0
149.7474;0.932338;0.6103;0;0;0;0;0
150.7474;0.938923;0.6115;0;0;0;0;0
151.7474;0.943688;0.6125;0;0;0;0;0
152.7474;0.952668;0.6052;0;0;0;0;0
153.7474;0.959599;0.6099;0;0;0;0;0
154.7473;0.966344;0.6096;0;0;0;0;0
155.7476;0.973241;0.6087;0;0;0;0;0
156.7473;0.979207;0.6093;0;0;0;0;0
157.7474;0.985731;0.6065;0;0;0;0;0
158.7473;0.993335;0.6125;0;0;0;0;0
159.7472;0.999291;0.6118;0;0;0;0;0
160.7472;1.01E+00;0.609;0;0;0;0;0
161.7472;1.01311;0.6046;0;0;0;0;0
162.7475;1.02014;0.6084;0;0;0;0;0
163.7472;1.02722;0.6043;0;0;0;0;0
164.7473;1.03386;0.6055;0;0;0;0;0
165.7472;1.04027;0.608;0;0;0;0;0
166.7471;1.04657;0.6033;0;0;0;0;0
167.7472;1.05E+00;0.6052;0;0;0;0;0
168.7471;1.0599;0.6062;0;0;0;0;0
169.7471;1.06741;0.6046;0;0;0;0;0
170.7471;1.07275;0.6039;0;0;0;0;0
171.747;1.07986;0.5998;0;0;0;0;0
172.7473;1.0876;0.6011;0;0;0;0;0
173.747;1.09E+00;0.5983;0;0;0;0;0
174.747;1.10001;0.602;0;0;0;0;0
175.747;1.1073;0.5979;0;0;0;0;0
176.747;1.11E+00;0.5998;0;0;0;0;0
177.747;1.12012;0.6017;0;0;0;0;0
178.7469;1.1263;0.603;0;0;0;0;0
179.7469;1.13292;0.5948;0;0;0;0;0
180.7469;1.13981;0.5922;0;0;0;0;0
181.7469;1.14695;0.5964;0;0;0;0;0
182.7469;1.15302;0.5945;0;0;0;0;0
183.7468;1.15898;0.5929;0;0;0;0;0
184.7468;1.16688;0.5932;0;0;0;0;0
185.7468;1.17264;0.591;0;0;0;0;0
186.7468;1.17996;0.5929;0;0;0;0;0
187.7471;1.18543;0.5894;0;0;0;0;0
188.7468;1.19341;0.5951;0;0;0;0;0
189.7469;1.20E+00;0.5875;0;0;0;0;0
190.7467;1.20661;0.59;0;0;0;0;0
191.7469;1.21361;0.5885;0;0;0;0;0
192.7468;1.2207;0.5875;0;0;0;0;0
193.747;1.22727;0.5831;0;0;0;0;0
194.7466;1.23391;0.5834;0;0;0;0;0
195.7466;1.24E+00;0.5825;0;0;0;0;0
196.7466;1.247;0.5828;0;0;0;0;0
197.7467;1.2532;0.5799;0;0;0;0;0
198.7466;1.26E+00;0.5793;0;0;0;0;0
199.7465;1.27E+00;0.5758;0;0;0;0;0
200.7466;1.27325;0.5746;0;0;0;0;0
201.7465;1.28105;0.573;0;0;0;0;0
202.7466;1.28777;0.5708;0;0;0;0;0
203.7465;1.29408;0.5708;0;0;0;0;0
204.7465;1.30113;0.5673;0;0;0;0;0
205.7467;1.30778;0.5663;0;0;0;0;0
206.7465;1.31453;0.5644;0;0;0;0;0
207.7465;1.32048;0.5622;0;0;0;0;0
208.7466;1.32762;0.5603;0;0;0;0;0
209.7464;1.33537;0.5556;0;0;0;0;0
210.7466;1.34221;0.548;0;0;0;0;0
211.7464;1.34849;0.542;0;0;0;0;0
212.7464;1.35587;0.5373;0;0;0;0;0
213.7463;1.36339;0.5313;0;0;0;0;0
214.7463;1.37002;0.5205;0;0;0;0;0
215.7463;1.37765;0.5101;0;0;0;0;0
216.7465;1.38549;0.4876;0;0;0;0;0
217.7466;1.39298;0.4712;0;0;0;0;0
218.7465;1.40046;0.4399;0;0;0;0;0
219.7464;1.41E+00;0.4058;0;0;0;0;0
220.7462;1.41841;0.384;0;0;0;0;0
221.7462;1.42465;0.3616;0;0;0;0;0
222.7462;1.43189;0.3448;0;0;0;0;0
223.7462;1.44017;0.3347;0;0;0;0;0
224.7461;1.44703;0.3148;0;0;0;0;0
225.7461;1.45436;0.2993;0;0;0;0;0
226.7461;1.46219;0.2822;0;0;0;0;0
227.7464;1.46883;0.2712;0;0;0;0;0
228.7461;1.47624;0.2569;0;0;0;0;0
229.746;1.48422;0.2459;0;0;0;0;0
230.7461;1.49E+00;0.2206;0;0;0;0;0
231.746;1.49922;0.1934;0;0;0;0;0
232.7463;1.50764;0.1549;0;0;0;0;0
233.746;1.51495;0.1264;0;0;0;0;0
234.7459;1.52346;0.1106;0;0;0;0;0
235.7459;1.53274;0.0891;0;0;0;0;0
236.7462;1.53844;0.0692;0;0;0;0;0
237.746;1.54588;0.0496;0;0;0;0;0
238.7459;1.55383;0.0458;0;0;0;0;0
239.7459;1.56E+00;0.0417;0;0;0;0;0
240.7459;1.56783;0.0379;0;0;0;0;0
241.7459;1.57E+00;0.0338;0;0;0;0;0
242.7459;1.58107;0.0351;0;0;0;0;0
243.746;1.58799;0.0263;0;0;0;0;0
244.7458;1.59504;0.0266;0;0;0;0;0
245.7458;1.6016;0.0196;0;0;0;0;0
246.7458;1.60871;0.0244;0;0;0;0;0
247.7458;1.61534;0.0171;0;0;0;0;0
248.746;1.62198;0.0184;0;0;0;0;0
249.7458;1.62836;0.0168;0;0;0;0;0
250.7457;1.63477;0.0161;0;0;0;0;0
251.7457;1.64246;0.0095;0;0;0;0;0
252.7457;1.64984;0.0114;0;0;0;0;0
253.7456;1.65538;0.0108;0;0;0;0;0
254.7456;1.66212;0.0095;0;0;0;0;0
255.7456;1.66989;0.0089;0;0;0;0;0
256.7456;1.67613;0.007;0;0;0;0;0
257.7456;1.68295;0.0032;0;0;0;0;0
258.7456;1.68885;0.0054;0;0;0;0;0
259.7455;1.69513;0;0;0;0;0;0
260.7458;1.70242;0.0076;0;0;0;0;0
261.7457;1.70973;0.0025;0;0;0;0;0
262.7456;1.71629;0.0035;0;0;0;0;0
263.7457;1.72254;-0.0006;0;0;0;0;0
264.7456;1.72964;0.006;0;0;0;0;0
265.7454;1.73653;0.0086;0;0;0;0;0
266.7454;1.74321;0.0019;0;0;0;0;0
267.7455;1.74967;0.0022;0;0;0;0;0
268.7456;1.75697;0.0051;0;0;0;0;0
269.7453;1.7628;0.0013;0;0;0;0;0
270.7456;1.76931;0.0007;0;0;0;0;0
271.2454;1.77286;0.0025;0;0;0;0;0