File: LAB_DATA/AA7020-T6_results/DATA/SL_320_NT20_90_1.csv
Time[s];Displacement[mm];Force[kN];AxStrain_1;AxStrain_2;Thickness[mm];OuterWidth[mm];InnerWidth[mm]
0;0;-0.0035;0;0;1.022;20;10.01
1.4665;0.000508641;0.001;0.000164899;0;0;0;0
2.9664;-0.00120629;0.0029;-0.000981183;0;0;0;0
4.4664;-0.001863788;0.007;-0.001002256;0;0;0;0
5.9664;0.00030017;-0.0047;-0.001365845;0;0;0;0
7.4663;0.000656271;0.0022;-0.001165591;0;0;0;0
8.9663;0.002199726;0.0689;-0.000933769;0;0;0;0
10.4663;0.007423593;0.2111;-0.00113222;0;0;0;0
11.9663;0.01487068;0.3277;-0.001297332;0;0;0;0
13.4664;0.0190254;0.4586;-0.001501126;0;0;0;0
14.9662;0.0257781;0.5385;-0.001188425;0;0;0;0
16.4663;0.0300748;0.6472;-0.001483556;0;0;0;0
17.9661;0.0353178;0.7591;-0.000781007;0;0;0;0
19.4661;0.0422038;0.8545;-0.000665133;0;0;0;0
20.9661;0.0449468;0.9484;-0.000891625;0;0;0;0
22.466;0.0536685;1.0388;-0.000838948;0;0;0;0
23.966;0.0570118;1.1178;-0.001202477;0;0;0;0
25.466;0.0647131;1.1883;-0.000447469;0;0;0;0
26.9659;0.07109712;1.2739;-0.000252663;0;0;0;0
28.4659;0.0787024;1.339;0.000815457;0;0;0;0
29.9659;0.085263;1.3602;0.000808445;0;0;0;0
31.4658;0.0915862;1.4303;0.001197528;0;0;0;0
32.9658;0.102877;1.4272;0.002199334;0;0;0;0
34.4658;0.115536;1.4496;0.003514868;0;0;0;0
35.9657;0.118929;1.4645;0.0039728;0;0;0;0
37.4657;0.129743;1.4569;0.005980328;0;0;0;0
38.9658;0.14003;1.4632;0.008055189;0;0;0;0
40.4657;0.151777;1.4714;0.008888451;0;0;0;0
41.9656;0.161125;1.4433;0.0093335;0;0;0;0
43.4656;0.170975;1.4553;0.0115939;0;0;0;0
44.9656;0.181544;1.4319;0.0131587;0;0;0;0
46.4655;0.189726;1.4344;0.0147088;0;0;0;0
47.9655;0.202521;1.4512;0.0169727;0;0;0;0
49.4655;0.211755;1.4452;0.0180743;0;0;0;0
50.9654;0.220234;1.4243;0.0200021;0;0;0;0
52.4654;0.230197;1.4237;0.0223741;0;0;0;0
53.9654;0.240072;1.4231;0.0234064;0;0;0;0
55.4655;0.250596;1.4265;0.02706549;0;0;0;0
56.9653;0.261214;1.4107;0.0287903;0;0;0;0
58.4653;0.272865;1.4174;0.031281;0;0;0;0
59.9655;0.281648;1.3921;0.0335926;0;0;0;0
61.4654;0.291994;1.3962;0.0380257;0;0;0;0
62.9652;0.302225;1.3968;0.0400925;0;0;0;0
64.4651;0.313048;1.3836;0.0422088;0;0;0;0
65.9651;0.324268;1.3684;0.0449063;0;0;0;0
67.4652;0.335485;1.3573;0.0476717;0;0;0;0
68.9651;0.344556;1.3652;0.05137;0;0;0;0
70.465;0.351541;1.3599;0.0543519;0;0;0;0
71.965;0.364258;1.3371;0.0564384;0;0;0;0
73.465;0.37608;1.3396;0.0611776;0;0;0;0
74.9649;0.384625;1.339;0.0630703;0;0;0;0
76.4649;0.392311;1.3156;0.0663461;0;0;0;0
77.9649;0.405172;1.2919;0.0701707;0;0;0;0
79.4648;0.417545;1.3153;0.0732276;0;0;0;0
80.9648;0.425807;1.2982;0.0771332;0;0;0;0
82.4648;0.437013;1.2824;0.0788825;0;0;0;0
83.9648;0.447858;1.2625;0.0822201;0;0;0;0
85.4647;0.45817;1.2666;0.0855884;0;0;0;0
86.9647;0.467287;1.2654;0.08992409;0;0;0;0
88.4647;0.479884;1.2464;0.0931787;0;0;0;0
89.9646;0.489193;1.2385;0.09803215;0;0;0;0
91.4646;0.501029;1.2391;0.101346;0;0;0;0
92.9646;0.508715;1.2376;0.105688;0;0;0;0
94.4645;0.522318;1.223;0.110698;0;0;0;0
95.9645;0.52977;1.2145;0.116004;0;0;0;0
97.4645;0.540362;1.2139;0.121104;0;0;0;0
98.9646;0.55186;1.1845;0.127152;0;0;0;0
100.4645;0.561077;1.1987;0.132203;0;0;0;0
101.9645;0.573504;1.1671;0.13802;0;0;0;0
103.4643;0.58282;1.1614;0.141538;0;0;0;0
104.9643;0.594578;1.1766;0.147782;0;0;0;0
106.4644;0.602442;1.1601;0.152849;0;0;0;0
107.9643;0.614334;1.1434;0.157978;0;0;0;0
109.4642;0.622469;1.1443;0.164403;0;0;0;0
110.9642;0.633636;1.1374;0.17037;0;0;0;0
112.4642;0.642784;1.1295;0.17517;0;0;0;0
113.9641;0.65512;1.1143;0.180935;0;0;0;0
115.4641;0.664677;1.1064;0.187728;0;0;0;0
116.9642;0.675925;1.0909;0.191251;0;0;0;0
118.464;0.684668;1.0931;0.196395;0;0;0;0
119.964;0.698497;1.066;0.201687;0;0;0;0
121.464;0.707229;1.0647;0.207331;0;0;0;0
122.9639;0.716169;1.0483;0.216216;0;0;0;0
124.4639;0.726516;1.0521;0.219898;0;0;0;0
125.9639;0.737466;1.0536;0.224737;0;0;0;0
127.4639;0.748361;1.0407;0.23068;0;0;0;0
128.9638;0.761261;1.0306;0.239176;0;0;0;0
130.4638;0.77113;1.0312;0.243641;0;0;0;0
131.9638;0.780486;1.0176;0.249685;0;0;0;0
133.4637;0.790041;1.0214;0.252141;0;0;0;0
134.9637;0.800067;1.016;0.258066;0;0;0;0
136.4638;0.813118;0.9851;0.263341;0;0;0;0
137.9636;0.820995;0.9939;0.267125;0;0;0;0
139.4636;0.831388;0.9768;0.274989;0;0;0;0
140.9636;0.840815;0.9633;0.280361;0;0;0;0
142.4635;0.853334;0.9547;0.286019;0;0;0;0
143.9635;0.864752;0.9569;0.293192;0;0;0;0
145.4635;0.871217;0.937;0.299583;0;0;0;0
146.9636;0.884814;0.9285;0.305497;0;0;0;0
148.4634;0.894828;0.9263;0.311474;0;0;0;0
149.9634;0.903885;0.9238;0.316854;0;0;0;0
151.4633;0.916043;0.914;0.321553;0;0;0;0
152.9633;0.924226;0.9209;0.329348;0;0;0;0
154.4633;0.935095;0.8953;0.331513;0;0;0;0
155.9633;0.945494;0.8975;0.340663;0;0;0;0
157.4632;0.955983;0.8918;0.347123;0;0;0;0
158.9632;0.96761;0.8884;0.351808;0;0;0;0
160.4633;0.978878;0.8754;0.357222;0;0;0;0
161.9631;0.987325;0.8495;0.365388;0;0;0;0
163.4631;0.999609;0.8564;0.370584;0;0;0;0
164.9631;1.00693;0.8574;0.378821;0;0;0;0
166.463;1.01732;0.8163;0.384829;0;0;0;0
167.963;1.02876;0.8343;0.39094;0;0;0;0
169.463;1.03946;0.8359;0.398036;0;0;0;0
170.9629;1.04866;0.7942;0.404385;0;0;0;0
172.4629;1.05981;0.8084;0.412261;0;0;0;0
173.9629;1.0688;0.7967;0.419506;0;0;0;0
175.4628;1.08135;0.7806;0.426447;0;0;0;0
176.9628;1.08795;0.7746;0.434322;0;0;0;0
178.4628;1.10313;0.773;0.441452;0;0;0;0
179.9628;1.11359;0.7578;0.446197;0;0;0;0
181.4627;1.12316;0.7231;0.452685;0;0;0;0
182.9627;1.13276;0.7171;0.462434;0;0;0;0
184.4627;1.14761;0.6722;0.468124;0;0;0;0
185.9626;1.15489;0.6425;0.479087;0;0;0;0
187.4626;1.16945;0.6036;0.487618;0;0;0;0
188.9627;1.17856;0.597;0.49409;0;0;0;0
190.4625;1.18814;0.5439;0.5022309;0;0;0;0
191.9625;1.20238;0.5227;0.508928;0;0;0;0
193.4625;1.21139;0.5167;0.516752;0;0;0;0
194.9626;1.22422;0.4959;0.525995;0;0;0;0
196.4624;1.23353;0.4832;0.52976;0;0;0;0
197.9625;1.24457;0.4696;0.538586;0;0;0;0
199.4624;1.25603;0.4598;0.543736;0;0;0;0
200.9623;1.26454;0.4377;0.550491;0;0;0;0
202.4623;1.27802;0.414;0.557704;0;0;0;0
203.9623;1.28617;0.3995;0.563259;0;0;0;0
205.4622;1.2971;0.3865;0.571491;0;0;0;0
206.9622;1.30825;0.3669;0.574548;0;0;0;0
208.4623;1.31772;0.3625;0.583644;0;0;0;0
209.9623;1.33019;0.3619;0.588018;0;0;0;0
211.4621;1.33855;0.3445;0.593757;0;0;0;0
212.9621;1.35111;0.3325;0.600643;0;0;0;0
214.462;1.35942;0.3322;0.605461;0;0;0;0
215.962;1.37041;0.3151;0.611406;0;0;0;0
217.4621;1.38118;0.3164;0.618409;0;0;0;0
218.9619;1.39075;0.2971;0.622068;0;0;0;0
220.4619;1.40276;0.2974;0.630072;0;0;0;0
221.9619;1.41034;0.2885;0.63499;0;0;0;0
223.4618;1.42319;0.2854;0.640029;0;0;0;0
224.9618;1.4342;0.2832;0.64733;0;0;0;0
226.4618;1.44562;0.2661;0.653359;0;0;0;0
227.9618;1.45243;0.2598;0.655728;0;0;0;0
229.4617;1.46331;0.2494;0.661725;0;0;0;0
230.9617;1.47358;0.2345;0.667706;0;0;0;0
232.4617;1.4832;0.2415;0.672256;0;0;0;0
233.9616;1.4942;0.219;0.678901;0;0;0;0
235.4618;1.507;0.2171;0.683741;0;0;0;0
236.9616;1.51483;0.2238;0.688384;0;0;0;0
238.4615;1.52251;0.214;0.694325;0;0;0;0
239.9615;1.53479;0.2099;0.700085;0;0;0;0
241.4615;1.54635;0.1991;0.70497;0;0;0;0
242.9614;1.55734;0.1811;0.712012;0;0;0;0
244.4614;1.56698;0.1896;0.715424;0;0;0;0
245.9614;1.57508;0.1846;0.719635;0;0;0;0
247.4613;1.58667;0.1675;0.725114;0;0;0;0
248.9613;1.59558;0.1855;0.729916;0;0;0;0
250.4613;1.60549;0.1672;0.735232;0;0;0;0
251.9613;1.6198;0.1628;0.741729;0;0;0;0
253.4612;1.62989;0.1546;0.74613;0;0;0;0
254.9612;1.6395;0.1533;0.751006;0;0;0;0
256.4612;1.646;0.1425;0.756721;0;0;0;0
257.9611;1.6589;0.1337;0.759928;0;0;0;0
259.4612;1.66852;0.1293;0.767051;0;0;0;0
260.9611;1.67856;0.1236;0.771157;0;0;0;0
262.461;1.68897;0.1255;0.774609;0;0;0;0
263.961;1.70106;0.1097;0.780255;0;0;0;0
265.461;1.71094;0.1075;0.784534;0;0;0;0
266.9609;1.71815;0.1151;0.790046;0;0;0;0
268.4609;1.73045;0.0974;0.795124;0;0;0;0
269.9609;1.74233;0.1046;0.80026;0;0;0;0
271.461;1.74944;0.0955;0.804335;0;0;0;0
272.9608;1.75921;0.0806;0.809157;0;0;0;0
274.4608;1.76933;0.0863;0.813684;0;0;0;0
275.9608;1.78199;0.0844;0.817435;0;0;0;0
277.4607;1.79207;0.0746;0.821577;0;0;0;0
278.9607;1.80223;0.073;0.826241;0;0;0;0
280.4608;1.814;0.068;0.830223;0;0;0;0
281.9606;1.82179;0.0692;0.83589;0;0;0;0
283.4606;1.8344;0.0654;0.839482;0;0;0;0
284.9607;1.84218;0.061;0.844222;0;0;0;0
286.4605;1.85717;0.0455;0.848454;0;0;0;0
287.9607;1.8639;0.055;0.853018;0;0;0;0
289.4605;1.87332;0.0484;0.858574;0;0;0;0
290.9606;1.88412;0.043;0.862335;0;0;0;0
292.4604;1.8923;0.0345;0.866132;0;0;0;0
293.9604;1.90279;0.0376;0.8717;0;0;0;0
295.4605;1.91466;0.0247;0.875554;0;0;0;0
296.9603;1.92251;0.0225;0.880596;0;0;0;0
298.4603;1.93218;0.0231;0.883926;0;0;0;0
299.9603;1.94332;0.0146;0.888135;0;0;0;0
301.4604;1.95561;0.0158;0.892338;0;0;0;0
302.9602;1.96364;0.0111;0.896634;0;0;0;0
304.4602;1.97481;0.0104;0.900176;0;0;0;0
305.9601;1.98555;0.0016;0.904658;0;0;0;0
307.4601;1.99253;0.0035;0.910353;0;0;0;0
308.9601;2.0083;-0.0091;0.912516;0;0;0;0
310.46;2.01583;-0.0114;0.919065;0;0;0;0
311.96;2.02373;-0.0129;0.922027;0;0;0;0
313.46;2.0345;-0.0155;0.926289;0;0;0;0
314.9601;2.04709;-0.017;0.930152;0;0;0;0
316.4599;2.0541;-0.0183;0.934524;0;0;0;0
317.9599;2.06668;-0.0249;0.938021;0;0;0;0
319.4598;2.07739;-0.0189;0.941548;0;0;0;0
320.9598;2.08596;-0.0208;0.945503;0;0;0;0
322.4598;2.09604;-0.0227;0.950141;0;0;0;0
323.9598;2.10525;-0.0183;0.9550498;0;0;0;0
325.4597;2.11848;-0.0189;0.958574;0;0;0;0
326.9597;2.12964;-0.0196;0.962327;0;0;0;0
328.4597;2.1364;-0.0202;0.965143;0;0;0;0
329.9596;2.14725;-0.0218;0.96945;0;0;0;0
331.4596;2.1549;-0.0221;0.972656;0;0;0;0
332.9597;2.15656;-0.0208;0.973192;0;0;0;0
334.4595;2.15356;-0.0224;0.972101;0;0;0;0
334.9595;2.15725;-0.0221;0.973931;0;0;0;0