File: LAB_DATA/AA7020-T6_results/DATA/SL_SH_45_1.csv
Time[s];Displacement[mm];Force[kN];AxStrain_1;AxStrain_2;Thickness[mm];OuterWidth[mm];InnerWidth[mm]
0;0;0.04551;0;0;1.015;0;0
0.9761;0.000424764;0.04911;0;0;0;0;0
1.9761;-6.64E-04;0.03168;0;0;0;0;0
2.976;-0.001406312;0.01329;0;0;0;0;0
3.976;-0.002024497;0.00456;0;0;0;0;0
4.9763;-0.001192664;0.01308;0;0;0;0;0
5.9759;0.000129673;0.033;0;0;0;0;0
6.9759;0.000424064;0.04344;0;0;0;0;0
7.9759;0.000200681;0.04704;0;0;0;0;0
8.9759;0.002765187;0.06003;0;0;0;0;0
9.9758;0.008275238;0.06921;0;0;0;0;0
10.9758;0.0151339;0.09681;0;0;0;0;0
11.9758;0.0220309;0.14391;0;0;0;0;0
12.9757;0.0295165;0.1956;0;0;0;0;0
13.9757;0.0343941;0.22158;0;0;0;0;0
14.9757;0.03919297;0.22905;0;0;0;0;0
15.9756;0.0441808;0.23571;0;0;0;0;0
16.9756;0.0512706;0.26337;0;0;0;0;0
17.9756;0.0584028;0.30954;0;0;0;0;0
18.9756;0.0652314;0.35175;0;0;0;0;0
19.9755;0.0698041;0.36576;0;0;0;0;0
20.9755;0.0745035;0.3633;0;0;0;0;0
21.9755;0.0800737;0.37185;0;0;0;0;0
22.9754;0.0876277;0.41544;0;0;0;0;0
23.9754;0.0946778;0.44361;0;0;0;0;0
24.9754;0.101585;0.47499;0;0;0;0;0
25.9754;0.107407;0.48825;0;0;0;0;0
26.9753;0.111685;0.48657;0;0;0;0;0
27.9753;0.117479;0.47859;0;0;0;0;0
28.9753;0.123194;0.48939;0;0;0;0;0
29.9752;0.13162;0.51945;0;0;0;0;0
30.9752;0.138894;0.5553;0;0;0;0;0
31.9752;0.144887;0.56277;0;0;0;0;0
32.9752;0.149378;0.55386;0;0;0;0;0
33.9751;0.154431;0.54447;0;0;0;0;0
34.9751;0.162386;0.55701;0;0;0;0;0
35.975;0.170076;0.58818;0;0;0;0;0
36.975;0.176915;0.61266;0;0;0;0;0
37.975;0.182488;0.60849;0;0;0;0;0
38.975;0.187043;0.58791;0;0;0;0;0
39.9749;0.192997;0.58848;0;0;0;0;0
40.9749;0.201065;0.60837;0;0;0;0;0
41.9749;0.208773;0.6393;0;0;0;0;0
42.9749;0.215228;0.65769;0;0;0;0;0
43.9748;0.220607;0.65172;0;0;0;0;0
44.9748;0.22598;0.63351;0;0;0;0;0
45.9747;0.232334;0.63039;0;0;0;0;0
46.9747;0.239688;0.65172;0;0;0;0;0
47.9747;0.247432;0.68223;0;0;0;0;0
48.9747;0.2536022;0.68763;0;0;0;0;0
49.9746;0.258583;0.67143;0;0;0;0;0
50.9746;0.264827;0.65769;0;0;0;0;0
51.9746;0.272346;0.67113;0;0;0;0;0
52.9746;0.280081;0.70632;0;0;0;0;0
53.9745;0.286895;0.71211;0;0;0;0;0
54.9745;0.291286;0.69618;0;0;0;0;0
55.9745;0.296911;0.67542;0;0;0;0;0
56.9744;0.304266;0.68754;0;0;0;0;0
57.9744;0.313186;0.71988;0;0;0;0;0
58.9744;0.319582;0.73581;0;0;0;0;0
59.9743;0.324705;0.73941;0;0;0;0;0
60.9743;0.329333;0.71655;0;0;0;0;0
61.9743;0.336021;0.71211;0;0;0;0;0
62.9742;0.343797;0.72396;0;0;0;0;0
63.9742;0.351968;0.75324;0;0;0;0;0
64.9742;0.35814;0.76482;0;0;0;0;0
65.9741;0.363567;0.75192;0;0;0;0;0
66.9741;0.368547;0.73401;0;0;0;0;0
67.9741;0.375903;0.73485;0;0;0;0;0
68.9741;0.383872;0.76443;0;0;0;0;0
69.974;0.391377;0.78246;0;0;0;0;0
70.974;0.396477;0.77733;0;0;0;0;0
71.974;0.40265;0.74955;0;0;0;0;0
72.9739;0.408254;0.75495;0;0;0;0;0
73.9739;0.416143;0.77364;0;0;0;0;0
74.9739;0.423956;0.79677;0;0;0;0;0
75.9739;0.430023;0.79989;0;0;0;0;0
76.9738;0.435119;0.79419;0;0;0;0;0
77.9738;0.440505;0.77961;0;0;0;0;0
78.9738;0.448042;0.77592;0;0;0;0;0
79.9737;0.455894;0.79704;0;0;0;0;0
80.9737;0.463609;0.82227;0;0;0;0;0
81.9737;0.468585;0.82017;0;0;0;0;0
82.9737;0.473836;0.79941;0;0;0;0;0
83.9736;0.4804548;0.7905;0;0;0;0;0
84.9736;0.487836;0.80313;0;0;0;0;0
85.9736;0.496498;0.83061;0;0;0;0;0
86.9735;0.502551;0.83904;0;0;0;0;0
87.9735;0.507276;0.81507;0;0;0;0;0
88.9735;0.513113;0.79932;0;0;0;0;0
89.9734;0.520691;0.81174;0;0;0;0;0
90.9734;0.528831;0.84549;0;0;0;0;0
91.9734;0.534967;0.85119;0;0;0;0;0
92.9733;0.540094;0.83118;0;0;0;0;0
93.9734;0.546192;0.8145;0;0;0;0;0
94.9733;0.554367;0.83241;0;0;0;0;0
95.9733;0.561779;0.86589;0;0;0;0;0
96.9732;0.567088;0.86379;0;0;0;0;0
97.9732;0.571878;0.83166;0;0;0;0;0
98.9732;0.578887;0.83307;0;0;0;0;0
99.9731;0.587963;0.86247;0;0;0;0;0
100.9731;0.594428;0.87726;0;0;0;0;0
101.9731;0.599088;0.85572;0;0;0;0;0
102.9731;0.604824;0.83745;0;0;0;0;0
103.973;0.613233;0.85707;0;0;0;0;0
104.973;0.62079;0.88806;0;0;0;0;0
105.973;0.626813;0.87819;0;0;0;0;0
106.9729;0.631142;0.85146;0;0;0;0;0
107.9729;0.6387;0.84843;0;0;0;0;0
108.9729;0.646997;0.87402;0;0;0;0;0
109.9728;0.654547;0.89592;0;0;0;0;0
110.9728;0.659883;0.88968;0;0;0;0;0
111.9728;0.664833;0.87288;0;0;0;0;0
112.9728;0.671562;0.86256;0;0;0;0;0
113.9727;0.679591;0.88095;0;0;0;0;0
114.9727;0.687376;0.91149;0;0;0;0;0
115.9727;0.693168;0.90807;0;0;0;0;0
116.9726;0.697367;0.88248;0;0;0;0;0
117.9726;0.704316;0.87165;0;0;0;0;0
118.9726;0.712797;0.89412;0;0;0;0;0
119.9725;0.72018;0.92334;0;0;0;0;0
120.9725;0.725657;0.91035;0;0;0;0;0
121.9725;0.730809;0.87888;0;0;0;0;0
122.9724;0.738432;0.88656;0;0;0;0;0
123.9724;0.746775;0.92181;0;0;0;0;0
124.9724;0.752832;0.92484;0;0;0;0;0
125.9724;0.757262;0.89688;0;0;0;0;0
126.9723;0.763634;0.88824;0;0;0;0;0
127.9723;0.772417;0.9147;0;0;0;0;0
128.9723;0.780176;0.93576;0;0;0;0;0
129.9722;0.784809;0.93102;0;0;0;0;0
130.9722;0.789824;0.89916;0;0;0;0;0
131.9722;0.797739;0.9039;0;0;0;0;0
132.9722;0.806516;0.93783;0;0;0;0;0
133.9721;0.81239;0.94665;0;0;0;0;0
134.9721;0.816912;0.9183;0;0;0;0;0
135.9721;0.823294;0.90009;0;0;0;0;0
136.972;0.831564;0.91887;0;0;0;0;0
137.972;0.839203;0.95244;0;0;0;0;0
138.972;0.845757;0.95034;0;0;0;0;0
139.9719;0.850218;0.92334;0;0;0;0;0
140.9719;0.855862;0.90891;0;0;0;0;0
141.9719;0.864385;0.92484;0;0;0;0;0
142.9719;0.872641;0.9567;0;0;0;0;0
143.9718;0.878855;0.95916;0;0;0;0;0
144.9718;0.883719;0.93291;0;0;0;0;0
145.9718;0.889493;0.9165;0;0;0;0;0
146.9717;0.897126;0.92532;0;0;0;0;0
147.9717;0.905432;0.95595;0;0;0;0;0
148.9717;0.912574;0.97425;0;0;0;0;0
149.9716;0.917062;0.951;0;0;0;0;0
150.9716;0.922588;0.9294;0;0;0;0;0
151.9716;0.9297;0.92949;0;0;0;0;0
152.9715;0.938791;0.96381;0;0;0;0;0
153.9715;0.945897;0.9786;0;0;0;0;0
154.9715;0.950674;0.9642;0;0;0;0;0
155.9715;0.955406;0.93735;0;0;0;0;0
156.9715;0.963039;0.93498;0;0;0;0;0
157.9714;0.971634;0.96411;0;0;0;0;0
158.9714;0.978907;0.98382;0;0;0;0;0
159.9713;0.984492;0.97008;0;0;0;0;0
160.9713;0.988865;0.94257;0;0;0;0;0
161.9713;0.996005;0.94164;0;0;0;0;0
162.9713;1.00466;0.96771;0;0;0;0;0
163.9712;1.01185;0.99132;0;0;0;0;0
164.9712;1.01751;0.99159;0;0;0;0;0
165.9712;1.02247;0.95832;0;0;0;0;0
166.9711;1.02929;0.95112;0;0;0;0;0
167.9711;1.03759;0.96504;0;0;0;0;0
168.9711;1.04541;0.99369;0;0;0;0;0
169.971;1.05119;0.99483;0;0;0;0;0
170.971;1.05641;0.97074;0;0;0;0;0
171.971;1.06245;0.95367;0;0;0;0;0
172.971;1.07014;0.95898;0;0;0;0;0
173.9709;1.07867;0.9915;0;0;0;0;0
174.9709;1.08523;1.00335;0;0;0;0;0
175.9709;1.09029;0.9858;0;0;0;0;0
176.9708;1.09581;0.9621;0;0;0;0;0
177.9708;1.10279;0.95898;0;0;0;0;0
178.9708;1.11162;0.98979;0;0;0;0;0
179.9707;1.11866;1.00914;0;0;0;0;0
180.9707;1.12364;1.00515;0;0;0;0;0
181.9707;1.12883;0.96846;0;0;0;0;0
182.9707;1.13612;0.96495;0;0;0;0;0
183.9706;1.1454;0.99966;0;0;0;0;0
184.9706;1.15278;1.01502;0;0;0;0;0
185.9706;1.15683;1.00155;0;0;0;0;0
186.9705;1.1618;0.97311;0;0;0;0;0
187.9705;1.16898;0.97083;0;0;0;0;0
188.9705;1.17838;1.00125;0;0;0;0;0
189.9704;1.18523;1.01709;0;0;0;0;0
190.9704;1.19024;1.0026;0;0;0;0;0
191.9704;1.19543;0.97662;0;0;0;0;0
192.9704;1.20268;0.97425;0;0;0;0;0
193.9703;1.21115;1.00164;0;0;0;0;0
194.9703;1.21873;1.01994;0;0;0;0;0
195.9703;1.2241;1.01112;0;0;0;0;0
196.9703;1.22909;0.98988;0;0;0;0;0
197.9702;1.23562;0.97698;0;0;0;0;0
198.9702;1.24382;0.98817;0;0;0;0;0
199.9702;1.25135;1.01367;0;0;0;0;0
200.9701;1.25815;1.02867;0;0;0;0;0
201.9701;1.26384;1.02297;0;0;0;0;0
202.9701;1.26896;1.00317;0;0;0;0;0
203.97;1.27535;0.98457;0;0;0;0;0
204.97;1.28282;0.9606;0;0;0;0;0
205.97;1.29093;0.99804;0;0;0;0;0
206.9699;1.29836;1.0242;0;0;0;0;0
207.9699;1.30441;1.02723;0;0;0;0;0
208.4699;1.30756;0.98808;0;0;0;0;0