File: polyN_optimization/results_exp/AA6014-T4/CH_45_3.csv
Time[s],Displacement[mm],Force[kN],AxStrain_1,AxStrain_2,Thickness[mm],OuterWidth[mm],Diameter[mm]
0.6,0,-0.0061597,0,0,1.1142,19.934,5.2297
3.1,0.001376,0.092573,1e-06,1.7e-05,0,0,0
5.6,0.002747,0.185,0.00013099,0.00016999,0,0,0
8.1,0.003776,0.27328,0.00033194,0.00024397,0,0,0
10.6,0.004517,0.33015,0.00018998,0.00023397,0,0,0
13.1,0.006349,0.40514,0.00048788,0.00034394,0,0,0
15.6,0.00749,0.48085,0.0004469,0.00047289,0,0,0
18.1,0.008628,0.56015,0.0004499,0.0004529,0,0,0
20.6,0.009612,0.64171,0.00054385,0.00041291,0,0,0
23.1,0.011626,0.72514,0.00078169,0.00064779,0,0,0
25.6,0.013496,0.80486,0.00094256,0.00072174,0,0,0
28.1,0.014617,0.88829,0.00098651,0.00090559,0,0,0
30.6,0.015735,0.968,0.0008896,0.0008956,0,0,0
33.1,0.017498,1.0481,0.0012213,0.00090559,0,0,0
35.6,0.019794,1.1279,0.001379,0.00099351,0,0,0
38.1,0.021382,1.2051,0.0015937,0.0014999,0,0,0
40.6,0.022574,1.282,0.0017774,0.0016167,0,0,0
43.1,0.02385,1.357,0.0017674,0.0016307,0,0,0
45.6,0.026234,1.4326,0.0022704,0.0018383,0,0,0
48.1,0.027872,1.5051,0.0027592,0.0024081,0,0,0
50.6,0.029732,1.58,0.0030065,0.0026385,0,0,0
53.1,0.031592,1.651,0.003148,0.0029766,0,0,0
55.6,0.033955,1.7206,0.0037998,0.0033314,0,0,0
58.1,0.036289,1.7876,0.0047726,0.0041374,0,0,0
60.6,0.038938,1.8524,0.0053606,0.0049129,0,0,0
63.1,0.043282,1.9116,0.0059413,0.0054004,0,0,0
65.6,0.048573,1.962,0.0071851,0.0064382,0,0,0
68.1,0.053965,2.0091,0.0093165,0.0083719,0,0,0
70.6,0.061556,2.0496,0.010911,0.010281,0,0,0
73.1,0.069835,2.0883,0.012226,0.011596,0,0,0
75.6,0.077566,2.1233,0.014038,0.013397,0,0,0
78.1,0.086977,2.1573,0.016498,0.015855,0,0,0
80.6,0.096313,2.1897,0.018247,0.018165,0,0,0
83.1,0.1055,2.2204,0.01963,0.019443,0,0,0
85.6,0.11586,2.2494,0.021693,0.021486,0,0,0
88.1,0.12525,2.278,0.024012,0.023514,0,0,0
90.6,0.13557,2.3057,0.025725,0.025454,0,0,0
93.1,0.14589,2.3313,0.0277,0.027249,0,0,0
95.6,0.15602,2.358,0.029654,0.029423,0,0,0
98.1,0.16705,2.3817,0.031458,0.031283,0,0,0
100.6,0.17704,2.4056,0.033391,0.032979,0,0,0
103.1,0.18789,2.4287,0.035202,0.034946,0,0,0
105.6,0.19885,2.4507,0.037028,0.036721,0,0,0
108.1,0.20891,2.472,0.038874,0.038642,0,0,0
110.6,0.21986,2.4923,0.040694,0.040555,0,0,0
113.1,0.22961,2.5117,0.042176,0.042253,0,0,0
115.6,0.23972,2.5293,0.043684,0.043995,0,0,0
118.1,0.24897,2.546,0.045354,0.045706,0,0,0
120.6,0.25715,2.5617,0.046797,0.04702,0,0,0
123.1,0.2668,2.577,0.048014,0.048333,0,0,0
125.6,0.27529,2.5913,0.049484,0.049707,0,0,0
128.1,0.2841,2.6057,0.050826,0.051207,0,0,0
130.6,0.29398,2.62,0.052197,0.052673,0,0,0
133.1,0.30263,2.633,0.053503,0.053915,0,0,0
135.6,0.31256,2.6467,0.054903,0.055122,0,0,0
138.1,0.32175,2.6597,0.0563,0.056773,0,0,0
140.6,0.331,2.6727,0.057569,0.057883,0,0,0
143.1,0.34088,2.6853,0.05874,0.059182,0,0,0
145.6,0.34973,2.698,0.060386,0.060383,0,0,0
148.1,0.3592,2.7107,0.06146,0.062025,0,0,0
150.6,0.36889,2.7223,0.06288,0.063224,0,0,0
153.1,0.37778,2.7343,0.064297,0.064484,0,0,0
155.6,0.38762,2.746,0.065618,0.065962,0,0,0
158.1,0.39679,2.7577,0.066907,0.067281,0,0,0
160.6,0.40596,2.7683,0.068037,0.068411,0,0,0
163.1,0.41554,2.7797,0.069573,0.069977,0,0,0
165.6,0.42388,2.7907,0.070825,0.071134,0,0,0
168.1,0.43325,2.801,0.0722,0.072446,0,0,0
170.6,0.44219,2.812,0.073417,0.073632,0,0,0
173.1,0.45077,2.822,0.074509,0.074848,0,0,0
175.6,0.46055,2.8323,0.075599,0.075999,0,0,0
178.1,0.46941,2.842,0.077123,0.07743,0,0,0
180.6,0.47832,2.852,0.078304,0.078641,0,0,0
183.1,0.48772,2.8617,0.07939,0.079912,0,0,0
185.6,0.49623,2.871,0.080783,0.080935,0,0,0
188.1,0.50543,2.881,0.082084,0.082141,0,0,0
190.6,0.51386,2.89,0.083351,0.083625,0,0,0
193.1,0.52272,2.899,0.084462,0.084828,0,0,0
195.6,0.53209,2.9087,0.085634,0.085846,0,0,0
198.1,0.54085,2.9177,0.086804,0.087139,0,0,0
200.6,0.54992,2.927,0.088127,0.088461,0,0,0
203.1,0.55908,2.9353,0.089357,0.089874,0,0,0
205.6,0.56784,2.944,0.090615,0.091008,0,0,0
208.1,0.57684,2.953,0.09181,0.092111,0,0,0
210.6,0.58557,2.9616,0.093034,0.093641,0,0,0
213.1,0.59437,2.97,0.094104,0.094955,0,0,0
215.6,0.60403,2.979,0.095479,0.096054,0,0,0
218.1,0.61233,2.987,0.09673,0.097303,0,0,0
220.6,0.62153,2.9957,0.097765,0.098611,0,0,0
223.1,0.63042,3.0043,0.099135,0.099858,0,0,0
225.6,0.63935,3.012,0.10035,0.10122,0,0,0
228.1,0.64858,3.0197,0.10159,0.10241,0,0,0
230.6,0.65721,3.028,0.10275,0.10362,0,0,0
233.1,0.66604,3.0363,0.10408,0.10495,0,0,0
235.6,0.67527,3.0443,0.10532,0.10625,0,0,0
238.1,0.68394,3.0523,0.10668,0.10758,0,0,0
240.6,0.69334,3.06,0.10791,0.10899,0,0,0
243.1,0.70233,3.068,0.10924,0.11019,0,0,0
245.6,0.71153,3.076,0.11044,0.1117,0,0,0
248.1,0.72076,3.0833,0.11188,0.11305,0,0,0
250.6,0.72946,3.0907,0.11315,0.11425,0,0,0
253.1,0.73842,3.0983,0.11455,0.11544,0,0,0
255.6,0.74732,3.1063,0.11569,0.11685,0,0,0
258.1,0.75598,3.1137,0.11713,0.11825,0,0,0
260.6,0.76525,3.121,0.11841,0.11953,0,0,0
263.1,0.77431,3.1283,0.11987,0.12078,0,0,0
265.6,0.78271,3.1353,0.12088,0.12215,0,0,0
268.1,0.79231,3.1433,0.12231,0.12355,0,0,0
270.6,0.80093,3.15,0.12376,0.12494,0,0,0
273.1,0.8099,3.1563,0.12524,0.1263,0,0,0
275.6,0.81883,3.1637,0.12634,0.12766,0,0,0
278.1,0.82746,3.1713,0.12797,0.12887,0,0,0
280.6,0.83679,3.1783,0.12915,0.13046,0,0,0
283.1,0.84575,3.1857,0.13068,0.13191,0,0,0
285.6,0.85509,3.192,0.13192,0.13338,0,0,0
288.1,0.86439,3.199,0.13342,0.13461,0,0,0
290.6,0.87328,3.2057,0.13471,0.13614,0,0,0
293.1,0.88279,3.2127,0.13626,0.1376,0,0,0
295.6,0.89165,3.2194,0.13752,0.13886,0,0,0
298.1,0.90044,3.2257,0.13907,0.14035,0,0,0
300.6,0.90978,3.233,0.14007,0.14198,0,0,0
303.1,0.91857,3.2393,0.1417,0.14332,0,0,0
305.6,0.92777,3.2457,0.14298,0.1446,0,0,0
308.1,0.93704,3.2523,0.14452,0.14631,0,0,0
310.6,0.94603,3.259,0.14586,0.14779,0,0,0
313.1,0.9554,3.2657,0.14745,0.14921,0,0,0
315.6,0.96457,3.272,0.14878,0.15068,0,0,0
318.1,0.9737,3.2787,0.15029,0.15221,0,0,0
320.6,0.983,3.2843,0.15173,0.15385,0,0,0
323.1,0.99199,3.291,0.15366,0.15532,0,0,0
325.6,1.0014,3.2973,0.15487,0.15698,0,0,0
328.1,1.0109,3.3037,0.15648,0.15842,0,0,0
330.6,1.0198,3.31,0.15794,0.15996,0,0,0
333.1,1.0294,3.316,0.15952,0.16153,0,0,0
335.6,1.0385,3.322,0.16109,0.16308,0,0,0
338.1,1.0477,3.3283,0.16255,0.16439,0,0,0
340.6,1.0568,3.3343,0.16409,0.16618,0,0,0
343.1,1.0659,3.34,0.16548,0.16783,0,0,0
345.6,1.0751,3.3463,0.16699,0.16927,0,0,0
348.1,1.0841,3.3523,0.16869,0.17078,0,0,0
350.6,1.0936,3.358,0.17022,0.1727,0,0,0
353.1,1.1029,3.3643,0.17181,0.17405,0,0,0
355.6,1.1122,3.3697,0.17342,0.17555,0,0,0
358.1,1.1217,3.3757,0.17522,0.17755,0,0,0
360.6,1.131,3.381,0.17688,0.17926,0,0,0
363.1,1.1405,3.3873,0.17865,0.18083,0,0,0
365.6,1.15,3.392,0.18003,0.18279,0,0,0
368.1,1.159,3.3983,0.18185,0.18444,0,0,0
370.6,1.1684,3.404,0.18364,0.18625,0,0,0
373.1,1.1777,3.4097,0.18532,0.18784,0,0,0
375.6,1.1869,3.4147,0.18671,0.18948,0,0,0
378.1,1.1965,3.4203,0.18844,0.19131,0,0,0
380.6,1.2056,3.426,0.19019,0.19303,0,0,0
383.1,1.215,3.431,0.19191,0.19477,0,0,0
385.6,1.2241,3.4367,0.19357,0.19678,0,0,0
388.1,1.2333,3.442,0.19537,0.19852,0,0,0
390.6,1.2426,3.447,0.19705,0.2,0,0,0
393.1,1.252,3.452,0.19876,0.20193,0,0,0
395.6,1.2613,3.458,0.20074,0.20398,0,0,0
398.1,1.2708,3.463,0.20266,0.20576,0,0,0
400.6,1.2804,3.468,0.20446,0.20759,0,0,0
403.1,1.29,3.473,0.20632,0.20944,0,0,0
405.6,1.2993,3.478,0.20823,0.21143,0,0,0
408.1,1.3089,3.483,0.21011,0.21335,0,0,0
410.6,1.3184,3.488,0.21212,0.2152,0,0,0
413.1,1.328,3.4933,0.21427,0.2172,0,0,0
415.6,1.3377,3.498,0.21603,0.21939,0,0,0
418.1,1.3473,3.503,0.21792,0.2213,0,0,0
420.6,1.3568,3.508,0.22005,0.22345,0,0,0
423.1,1.3665,3.513,0.22202,0.22533,0,0,0
425.6,1.3763,3.5174,0.22408,0.22728,0,0,0
428.1,1.3857,3.522,0.22599,0.22942,0,0,0
430.6,1.3951,3.5276,0.22805,0.23155,0,0,0
433.1,1.4049,3.532,0.22992,0.2336,0,0,0
435.6,1.4145,3.5363,0.23216,0.23588,0,0,0
438.1,1.4243,3.541,0.23439,0.23795,0,0,0
440.6,1.4339,3.546,0.23664,0.24025,0,0,0
443.1,1.4437,3.55,0.23863,0.24252,0,0,0
445.6,1.4532,3.555,0.24053,0.24452,0,0,0
448.1,1.463,3.559,0.24301,0.24675,0,0,0
450.6,1.4731,3.5637,0.24538,0.24918,0,0,0
453.1,1.4827,3.568,0.2479,0.25167,0,0,0
455.6,1.4925,3.5727,0.25002,0.25388,0,0,0
458.1,1.5023,3.577,0.25252,0.25615,0,0,0
460.6,1.5123,3.5813,0.25497,0.25861,0,0,0
463.1,1.522,3.5854,0.25726,0.26092,0,0,0
465.6,1.5319,3.59,0.26006,0.26327,0,0,0
468.1,1.5423,3.5943,0.26264,0.26605,0,0,0
470.6,1.5522,3.5983,0.26504,0.26859,0,0,0
473.1,1.5622,3.6023,0.26774,0.27118,0,0,0
475.6,1.5724,3.6063,0.27046,0.27405,0,0,0
478.1,1.5828,3.6103,0.27305,0.2767,0,0,0
480.6,1.593,3.6143,0.2759,0.27942,0,0,0
483.1,1.6033,3.6187,0.27868,0.28246,0,0,0
485.6,1.6136,3.6223,0.2815,0.28519,0,0,0
488.1,1.6239,3.6263,0.28438,0.28834,0,0,0
490.6,1.6343,3.631,0.28705,0.2913,0,0,0
493.1,1.6451,3.634,0.28982,0.29403,0,0,0
495.6,1.6556,3.638,0.29313,0.29713,0,0,0
498.1,1.666,3.6413,0.29593,0.30039,0,0,0
500.6,1.6769,3.6453,0.2987,0.30337,0,0,0
503.1,1.6873,3.6487,0.30216,0.30676,0,0,0
505.6,1.698,3.6527,0.30558,0.31019,0,0,0
508.1,1.709,3.656,0.30896,0.31331,0,0,0
510.6,1.7198,3.659,0.31228,0.31699,0,0,0
513.1,1.7309,3.6627,0.31545,0.32033,0,0,0
515.6,1.7418,3.666,0.31931,0.32381,0,0,0
518.1,1.7529,3.6693,0.32296,0.32776,0,0,0
520.6,1.7642,3.6723,0.32692,0.33162,0,0,0
523.1,1.7752,3.675,0.33085,0.33511,0,0,0
525.6,1.7867,3.6783,0.33473,0.33935,0,0,0
528.1,1.7984,3.681,0.33907,0.34358,0,0,0
530.6,1.81,3.6837,0.34327,0.34785,0,0,0
533.1,1.8217,3.6857,0.34755,0.35223,0,0,0
535.6,1.8334,3.6887,0.35214,0.3568,0,0,0
538.1,1.8458,3.6903,0.35628,0.36156,0,0,0
540.6,1.8578,3.693,0.36107,0.36664,0,0,0
543.1,1.8705,3.6947,0.36611,0.37161,0,0,0
545.6,1.8833,3.696,0.37143,0.37733,0,0,0
548.1,1.8961,3.6977,0.37716,0.38284,0,0,0
550.6,1.9094,3.699,0.38242,0.38876,0,0,0
553.1,1.9228,3.699,0.38865,0.395,0,0,0
555.6,1.9367,3.699,0.39462,0.40138,0,0,0
558.1,1.9504,3.699,0.40058,0.40881,0,0,0
560.6,1.9647,3.6977,0.40721,0.41557,0,0,0
563.1,1.9793,3.6963,0.41374,0.42323,0,0,0
565.6,1.9943,3.6933,0.42128,0.43126,0,0,0
568.1,2.0092,3.6903,0.42806,0.43962,0,0,0
570.6,2.0247,3.685,0.43582,0.44841,0,0,0
573.1,2.0404,3.6793,0.4434,0.4575,0,0,0
575.6,2.0569,3.671,0.45196,0.46759,0,0,0
578.1,2.0745,3.6486,0.46123,0.47728,0,0,0