File: polyN_optimization/results_exp/AA6014-T4/CH_90_2.csv
Time[s],Displacement[mm],Force[kN],AxStrain_1,AxStrain_2,Thickness[mm],OuterWidth[mm],Diameter[mm]
0.61,0,-0.0055942,0,0,1.1282,20.038,5.2911
3.11,0.001513,0.089564,8.7996e-05,0.00039092,0,0,0
5.61,0.002907,0.178,-1.4e-05,0.00022298,0,0,0
8.11,0.003503,0.23771,-2e-05,0.00027696,0,0,0
10.61,0.004709,0.31086,6.8998e-05,0.00028396,0,0,0
13.11,0.006046,0.38829,0.00015799,0.00036893,0,0,0
15.61,0.007282,0.465,0.00032895,0.00052986,0,0,0
18.11,0.007772,0.54486,0.00026896,0.00050687,0,0,0
20.61,0.009293,0.62614,0.00026496,0.00073173,0,0,0
23.11,0.011257,0.70614,0.00078869,0.00072474,0,0,0
25.61,0.012952,0.78829,0.00084264,0.00092957,0,0,0
28.11,0.013449,0.86986,0.00066778,0.00079568,0,0,0
30.61,0.014725,0.94986,0.00088561,0.00087961,0,0,0
33.11,0.016994,1.0301,0.00090959,0.0010704,0,0,0
35.61,0.018962,1.1094,0.0010504,0.0014999,0,0,0
38.11,0.020321,1.1899,0.0011144,0.001426,0,0,0
40.61,0.021234,1.2669,0.0013491,0.0015398,0,0,0
43.11,0.02291,1.3441,0.0014529,0.0014729,0,0,0
45.61,0.025297,1.4191,0.0017175,0.0019281,0,0,0
48.11,0.026925,1.494,0.0021327,0.0022096,0,0,0
50.61,0.028234,1.5681,0.0020998,0.0022165,0,0,0
53.11,0.030457,1.6399,0.0025747,0.0023173,0,0,0
55.61,0.03234,1.7111,0.0032677,0.0030005,0,0,0
58.11,0.034599,1.7799,0.0038137,0.0036732,0,0,0
60.61,0.036688,1.8484,0.0041205,0.0038127,0,0,0
63.11,0.040552,1.9106,0.0047188,0.0043216,0,0,0
65.61,0.045826,1.9651,0.0062882,0.0056311,0,0,0
68.11,0.051201,2.0084,0.0084214,0.0073857,0,0,0
70.61,0.059778,2.0477,0.0099682,0.0087744,0,0,0
73.11,0.068282,2.0846,0.011224,0.0099682,0,0,0
75.61,0.077108,2.1186,0.013237,0.012133,0,0,0
78.11,0.08718,2.1517,0.015805,0.014413,0,0,0
80.61,0.096577,2.1824,0.017367,0.015877,0,0,0
83.11,0.10619,2.2127,0.018595,0.017397,0,0,0
85.61,0.11687,2.2413,0.020747,0.019476,0,0,0
88.11,0.12657,2.2697,0.023018,0.021594,0,0,0
90.61,0.13762,2.2967,0.024886,0.023013,0,0,0
93.11,0.14815,2.323,0.026581,0.024904,0,0,0
95.61,0.15863,2.3486,0.02844,0.026828,0,0,0
98.11,0.16999,2.3726,0.030357,0.028654,0,0,0
100.61,0.18028,2.3967,0.032202,0.030411,0,0,0
103.11,0.19208,2.42,0.03427,0.031993,0,0,0
105.61,0.20321,2.4433,0.036125,0.033912,0,0,0
108.11,0.21451,2.4653,0.037959,0.03579,0,0,0
110.61,0.22532,2.4867,0.039746,0.03759,0,0,0
113.11,0.23608,2.5074,0.041693,0.039247,0,0,0
115.61,0.24756,2.5273,0.043363,0.041047,0,0,0
118.11,0.25772,2.5463,0.045262,0.043042,0,0,0
120.61,0.2678,2.564,0.046897,0.044456,0,0,0
123.11,0.27726,2.58,0.048305,0.045804,0,0,0
125.61,0.28547,2.594,0.049584,0.047118,0,0,0
128.11,0.29422,2.6083,0.051148,0.04843,0,0,0
130.61,0.30207,2.622,0.05236,0.049517,0,0,0
133.11,0.3105,2.6354,0.053252,0.050539,0,0,0
135.61,0.31966,2.6483,0.054492,0.052038,0,0,0
138.11,0.32779,2.661,0.056049,0.053345,0,0,0
140.61,0.33784,2.6733,0.057349,0.054712,0,0,0
143.11,0.34684,2.686,0.058522,0.055951,0,0,0
145.61,0.35574,2.6983,0.059946,0.057062,0,0,0
148.11,0.36592,2.7107,0.061115,0.058425,0,0,0
150.61,0.37489,2.7223,0.062597,0.059501,0,0,0
153.11,0.3844,2.7346,0.064016,0.060733,0,0,0
155.61,0.39449,2.7467,0.065023,0.062155,0,0,0
158.11,0.40293,2.7577,0.066249,0.063133,0,0,0
160.61,0.41286,2.769,0.067632,0.064582,0,0,0
163.11,0.42183,2.7803,0.068917,0.065683,0,0,0
165.61,0.43043,2.7913,0.070232,0.066971,0,0,0
168.11,0.44056,2.802,0.071358,0.067945,0,0,0
170.61,0.4491,2.8127,0.07264,0.069386,0,0,0
173.11,0.45876,2.8237,0.07395,0.070701,0,0,0
175.61,0.46835,2.8333,0.07501,0.071952,0,0,0
178.11,0.47712,2.844,0.076193,0.073169,0,0,0
180.61,0.48687,2.854,0.077591,0.074261,0,0,0
183.11,0.49577,2.8633,0.078616,0.075165,0,0,0
185.61,0.50472,2.8734,0.079919,0.076534,0,0,0
188.11,0.51383,2.883,0.080879,0.077839,0,0,0
190.61,0.52209,2.8924,0.082364,0.078802,0,0,0
193.11,0.53169,2.9013,0.083261,0.079825,0,0,0
195.61,0.54072,2.911,0.084433,0.080879,0,0,0
198.11,0.54911,2.92,0.085852,0.082427,0,0,0
200.61,0.55888,2.929,0.087084,0.083385,0,0,0
203.11,0.56754,2.938,0.088129,0.084434,0,0,0
205.61,0.57644,2.9463,0.089266,0.0857,0,0,0
208.11,0.58557,2.9557,0.090524,0.086592,0,0,0
210.61,0.59407,2.964,0.091627,0.087669,0,0,0
213.11,0.60337,2.9723,0.092913,0.089176,0,0,0
215.61,0.61206,2.981,0.094106,0.090065,0,0,0
218.11,0.62106,2.99,0.095449,0.091231,0,0,0
220.61,0.63056,2.998,0.096456,0.092364,0,0,0
223.11,0.63939,3.0067,0.097735,0.09371,0,0,0
225.61,0.64829,3.0147,0.099013,0.094933,0,0,0
228.11,0.65759,3.0227,0.10026,0.09594,0,0,0
230.61,0.66558,3.031,0.10129,0.097158,0,0,0
233.11,0.67521,3.0393,0.10232,0.098499,0,0,0
235.61,0.68394,3.0473,0.1039,0.099624,0,0,0
238.11,0.69317,3.0557,0.10508,0.10057,0,0,0
240.61,0.70247,3.0633,0.10613,0.10205,0,0,0
243.11,0.711,3.0713,0.10746,0.1032,0,0,0
245.61,0.7205,3.079,0.10876,0.1046,0,0,0
248.11,0.7297,3.087,0.10987,0.10565,0,0,0
250.61,0.73799,3.0943,0.11107,0.10695,0,0,0
253.11,0.74739,3.1023,0.11231,0.10807,0,0,0
255.61,0.75579,3.11,0.11359,0.10957,0,0,0
258.11,0.76478,3.1177,0.11479,0.11072,0,0,0
260.61,0.77395,3.1247,0.11614,0.1118,0,0,0
263.11,0.78251,3.1323,0.11724,0.11297,0,0,0
265.61,0.79174,3.1393,0.11859,0.11432,0,0,0
268.11,0.80104,3.1473,0.11996,0.11557,0,0,0
270.61,0.8096,3.154,0.12121,0.11683,0,0,0
273.11,0.81897,3.1613,0.12263,0.11799,0,0,0
275.61,0.82743,3.1687,0.12385,0.11952,0,0,0
278.11,0.83653,3.1757,0.12512,0.12074,0,0,0
280.61,0.84599,3.183,0.12628,0.12198,0,0,0
283.11,0.85442,3.1903,0.12776,0.12332,0,0,0
285.61,0.86392,3.1973,0.12917,0.1248,0,0,0
288.11,0.87326,3.204,0.13053,0.12614,0,0,0
290.61,0.88198,3.2107,0.13203,0.12717,0,0,0
293.11,0.89158,3.2183,0.13318,0.12865,0,0,0
295.61,0.90018,3.225,0.13438,0.13013,0,0,0
298.11,0.90904,3.2317,0.13594,0.13127,0,0,0
300.61,0.91831,3.2383,0.13743,0.13251,0,0,0
303.11,0.9267,3.245,0.13872,0.13392,0,0,0
305.61,0.936,3.2517,0.13977,0.13533,0,0,0
308.11,0.94503,3.2583,0.14143,0.13641,0,0,0
310.61,0.954,3.2643,0.143,0.13791,0,0,0
313.11,0.96313,3.2713,0.14431,0.13946,0,0,0
315.61,0.97192,3.2777,0.14568,0.14062,0,0,0
318.11,0.98079,3.2847,0.1473,0.14217,0,0,0
320.61,0.99012,3.2907,0.14858,0.14368,0,0,0
323.11,0.99895,3.2963,0.15011,0.14496,0,0,0
325.61,1.0083,3.303,0.15147,0.14627,0,0,0
328.11,1.0171,3.3097,0.15302,0.14798,0,0,0
330.61,1.0264,3.3153,0.15463,0.14948,0,0,0
333.11,1.0353,3.3213,0.15619,0.15084,0,0,0
335.61,1.0441,3.328,0.15779,0.15211,0,0,0
338.11,1.0533,3.334,0.15894,0.15384,0,0,0
340.61,1.0619,3.34,0.16077,0.15519,0,0,0
343.11,1.0707,3.346,0.16226,0.1566,0,0,0
345.61,1.0796,3.352,0.16391,0.15841,0,0,0
348.11,1.0886,3.358,0.16513,0.15975,0,0,0
350.61,1.0975,3.3637,0.16681,0.16138,0,0,0
353.11,1.1067,3.37,0.16863,0.1629,0,0,0
355.61,1.1157,3.375,0.17016,0.16432,0,0,0
358.11,1.1249,3.3807,0.17123,0.16575,0,0,0
360.61,1.1336,3.387,0.17341,0.16725,0,0,0
363.11,1.1428,3.3924,0.17507,0.16887,0,0,0
365.61,1.1517,3.398,0.17637,0.17029,0,0,0
368.11,1.1607,3.403,0.17803,0.1717,0,0,0
370.61,1.1697,3.409,0.17966,0.17357,0,0,0
373.11,1.1785,3.415,0.18156,0.17518,0,0,0
375.61,1.1876,3.42,0.18288,0.17655,0,0,0
378.11,1.1967,3.4257,0.18469,0.1783,0,0,0
380.61,1.2052,3.431,0.18662,0.18021,0,0,0
383.11,1.2144,3.436,0.18865,0.1818,0,0,0
385.61,1.2233,3.441,0.18993,0.18317,0,0,0
388.11,1.2321,3.447,0.19165,0.18499,0,0,0
390.61,1.241,3.452,0.19347,0.18686,0,0,0
393.11,1.2502,3.457,0.19541,0.18861,0,0,0
395.61,1.2592,3.4624,0.19704,0.19034,0,0,0
398.11,1.2685,3.4673,0.19916,0.19175,0,0,0
400.61,1.2778,3.472,0.20108,0.19363,0,0,0
403.11,1.287,3.477,0.20295,0.19565,0,0,0
405.61,1.2962,3.482,0.20437,0.19747,0,0,0
408.11,1.3052,3.487,0.20658,0.19901,0,0,0
410.61,1.3145,3.4926,0.20871,0.20099,0,0,0
413.11,1.3238,3.497,0.20999,0.20319,0,0,0
415.61,1.3331,3.5027,0.21206,0.20527,0,0,0
418.11,1.3422,3.507,0.2142,0.20715,0,0,0
420.61,1.3514,3.512,0.21607,0.2089,0,0,0
423.11,1.3609,3.517,0.21828,0.21108,0,0,0
425.61,1.3699,3.521,0.2206,0.21317,0,0,0
428.11,1.3794,3.526,0.22246,0.21504,0,0,0
430.61,1.3886,3.531,0.22402,0.21701,0,0,0
433.11,1.3981,3.5357,0.22688,0.21931,0,0,0
435.61,1.4077,3.5403,0.22926,0.22154,0,0,0
438.11,1.417,3.545,0.23081,0.22345,0,0,0
440.61,1.4264,3.549,0.23339,0.22573,0,0,0
443.11,1.4359,3.554,0.23573,0.2279,0,0,0
445.61,1.4452,3.5584,0.23785,0.2303,0,0,0
448.11,1.455,3.563,0.24028,0.23278,0,0,0
450.61,1.4643,3.567,0.2426,0.23483,0,0,0
453.11,1.474,3.5714,0.24489,0.23681,0,0,0
455.61,1.4835,3.576,0.24749,0.23951,0,0,0
458.11,1.4931,3.5807,0.24995,0.242,0,0,0
460.61,1.503,3.5843,0.25248,0.24415,0,0,0
463.11,1.5125,3.588,0.25501,0.24673,0,0,0
465.61,1.5221,3.593,0.25807,0.24922,0,0,0
468.11,1.5323,3.597,0.26027,0.25149,0,0,0
470.61,1.5422,3.601,0.26322,0.25452,0,0,0
473.11,1.5519,3.605,0.26606,0.25735,0,0,0
475.61,1.562,3.6093,0.26868,0.25973,0,0,0
478.11,1.5722,3.613,0.2718,0.26279,0,0,0
480.61,1.5825,3.617,0.27507,0.2657,0,0,0
483.11,1.5928,3.6203,0.27823,0.26858,0,0,0
485.61,1.6029,3.6243,0.28117,0.27155,0,0,0
488.11,1.6134,3.628,0.28428,0.2749,0,0,0
490.61,1.6237,3.632,0.28739,0.27792,0,0,0
493.11,1.6341,3.6353,0.29096,0.28133,0,0,0
495.61,1.6442,3.6393,0.29429,0.28434,0,0,0
498.11,1.6551,3.642,0.29791,0.28764,0,0,0
500.61,1.6658,3.646,0.30122,0.29116,0,0,0
503.11,1.6766,3.6493,0.30494,0.29482,0,0,0
505.61,1.6876,3.652,0.30879,0.29851,0,0,0
508.11,1.6986,3.6557,0.31273,0.30237,0,0,0
510.61,1.7098,3.658,0.31645,0.30611,0,0,0
513.11,1.721,3.6607,0.32072,0.3104,0,0,0
515.61,1.7327,3.664,0.32488,0.31457,0,0,0
518.11,1.7439,3.6667,0.32991,0.31866,0,0,0
520.61,1.7558,3.6687,0.33432,0.32316,0,0,0
523.11,1.7676,3.671,0.33916,0.32765,0,0,0
525.61,1.7799,3.6737,0.34429,0.33226,0,0,0
528.11,1.7921,3.6747,0.34925,0.33778,0,0,0
530.61,1.8046,3.6763,0.35449,0.3427,0,0,0
533.11,1.8175,3.6773,0.36029,0.3482,0,0,0
535.61,1.8303,3.679,0.36611,0.35382,0,0,0
538.11,1.8437,3.679,0.3723,0.36021,0,0,0
540.61,1.8572,3.679,0.37835,0.36645,0,0,0
543.11,1.8712,3.6787,0.38492,0.37301,0,0,0
545.61,1.8853,3.6777,0.39173,0.37999,0,0,0
548.11,1.8999,3.6753,0.39834,0.38691,0,0,0
550.61,1.9154,3.672,0.40678,0.39452,0,0,0
553.11,1.9308,3.6673,0.41464,0.40312,0,0,0
555.61,1.9468,3.6597,0.42351,0.4122,0,0,0
558.11,1.9631,3.6497,0.4322,0.42228,0,0,0
560.61,1.9802,3.6347,0.44189,0.43207,0,0,0
563.11,1.9982,3.6093,0.45186,0.44481,0,0,0
565.61,2.0164,3.5867,0.46238,0.45832,0,0,0
568.11,2.0363,3.5436,0.47338,0.47918,0,0,0