File: polyN_optimization/results_exp/AA6014-T4/CH_90_3.csv
Time[s],Displacement[mm],Force[kN],AxStrain_1,AxStrain_2,Thickness[mm],OuterWidth[mm],Diameter[mm]
0.64,0,-0.005123,0,0,1.1245,20.044,5.2046
3.14,0.00182,0.093137,0.00040792,-5.5002e-05,0,0,0
5.64,0.002928,0.18285,0.00043291,2e-05,0,0,0
8.14,0.003751,0.24172,0.00031395,0.00013699,0,0,0
10.64,0.005168,0.31771,0.00039592,0.00018098,0,0,0
13.14,0.00664,0.39114,0.00058083,0.00039592,0,0,0
15.64,0.007648,0.46815,0.00058783,0.00026197,0,0,0
18.14,0.008319,0.54557,0.00059782,0.00036893,0,0,0
20.64,0.009884,0.62585,0.00079568,0.00041991,0,0,0
23.14,0.012046,0.70671,0.00061381,0.00048688,0,0,0
25.64,0.013818,0.78729,0.0010574,0.00068177,0,0,0
28.14,0.014493,0.86985,0.00087961,0.00069476,0,0,0
30.64,0.015521,0.94715,0.0010305,0.00081567,0,0,0
33.14,0.017542,1.0283,0.0011374,0.0010475,0,0,0
35.64,0.019747,1.1054,0.0013251,0.0011983,0,0,0
38.14,0.021174,1.1839,0.0015029,0.001402,0,0,0
40.64,0.021916,1.2606,0.0014959,0.0012552,0,0,0
43.14,0.023521,1.3371,0.0018144,0.001419,0,0,0
45.64,0.025851,1.411,0.0022505,0.001992,0,0,0
48.14,0.027513,1.4857,0.0025418,0.0020559,0,0,0
50.64,0.028933,1.5601,0.0024979,0.0020958,0,0,0
53.14,0.030843,1.6299,0.0029068,0.0024949,0,0,0
55.64,0.032911,1.7011,0.003452,0.0028868,0,0,0
58.14,0.034956,1.7699,0.0042818,0.0035218,0,0,0
60.64,0.037346,1.8379,0.0043983,0.00375,0,0,0
63.14,0.041026,1.8999,0.0049935,0.0042141,0,0,0
65.64,0.0454,1.9561,0.0063548,0.005294,0,0,0
68.14,0.050533,2.0017,0.0085375,0.0072884,0,0,0
70.64,0.058658,2.041,0.0098018,0.0088904,0,0,0
73.14,0.067353,2.0787,0.01118,0.010074,0,0,0
75.64,0.075548,2.1123,0.013413,0.012077,0,0,0
78.14,0.085727,2.146,0.015685,0.014541,0,0,0
80.64,0.094943,2.1764,0.017271,0.016508,0,0,0
83.14,0.10469,2.2073,0.018794,0.017891,0,0,0
85.64,0.11507,2.2363,0.020848,0.019867,0,0,0
88.14,0.12477,2.2641,0.023236,0.022129,0,0,0
90.64,0.13549,2.292,0.024734,0.023957,0,0,0
93.14,0.14572,2.3177,0.026583,0.025617,0,0,0
95.64,0.15643,2.344,0.02859,0.027725,0,0,0
98.14,0.16772,2.368,0.030442,0.029614,0,0,0
100.64,0.17807,2.3927,0.032453,0.03145,0,0,0
103.14,0.18973,2.4157,0.034226,0.033492,0,0,0
105.64,0.20054,2.439,0.03594,0.035447,0,0,0
108.14,0.21173,2.4606,0.037885,0.0373,0,0,0
110.64,0.22307,2.4827,0.039751,0.039105,0,0,0
113.14,0.23338,2.5037,0.041222,0.040996,0,0,0
115.64,0.245,2.524,0.043051,0.042754,0,0,0
118.14,0.25514,2.544,0.044904,0.044582,0,0,0
120.64,0.26597,2.5623,0.046635,0.046315,0,0,0
123.14,0.27601,2.5794,0.048141,0.048044,0,0,0
125.64,0.28464,2.5944,0.049548,0.049451,0,0,0
128.14,0.29329,2.608,0.050889,0.051048,0,0,0
130.64,0.30085,2.621,0.052069,0.051972,0,0,0
133.14,0.30848,2.6347,0.053089,0.05315,0,0,0
135.64,0.31751,2.6477,0.054393,0.054392,0,0,0
138.14,0.32552,2.661,0.05576,0.055821,0,0,0
140.64,0.33531,2.6737,0.057187,0.056995,0,0,0
143.14,0.34454,2.6853,0.058518,0.05839,0,0,0
145.64,0.3536,2.6977,0.059816,0.060003,0,0,0
148.14,0.36408,2.71,0.061364,0.061488,0,0,0
150.64,0.37317,2.7223,0.062469,0.06253,0,0,0
153.14,0.38248,2.7343,0.063698,0.063916,0,0,0
155.64,0.39216,2.746,0.06502,0.065175,0,0,0
158.14,0.40131,2.758,0.066151,0.066589,0,0,0
160.64,0.41115,2.769,0.067659,0.067688,0,0,0
163.14,0.41957,2.7803,0.068724,0.068849,0,0,0
165.64,0.42859,2.7916,0.069884,0.070445,0,0,0
168.14,0.43843,2.802,0.071229,0.071977,0,0,0
170.64,0.44701,2.813,0.072666,0.072946,0,0,0
173.14,0.45675,2.824,0.07354,0.074068,0,0,0
175.64,0.46631,2.834,0.074694,0.075283,0,0,0
178.14,0.47522,2.844,0.076063,0.076745,0,0,0
180.64,0.48497,2.8543,0.077401,0.077802,0,0,0
183.14,0.49387,2.864,0.078488,0.079044,0,0,0
185.64,0.50296,2.874,0.079511,0.080253,0,0,0
188.14,0.51191,2.8833,0.08072,0.081368,0,0,0
190.64,0.5203,2.893,0.082051,0.082697,0,0,0
193.14,0.5298,2.902,0.082979,0.083748,0,0,0
195.64,0.53846,2.912,0.08409,0.085074,0,0,0
198.14,0.54746,2.921,0.085355,0.086276,0,0,0
200.64,0.55706,2.9303,0.086495,0.087631,0,0,0
203.14,0.56555,2.9387,0.087572,0.088707,0,0,0
205.64,0.57452,2.948,0.08874,0.090057,0,0,0
208.14,0.58368,2.957,0.090214,0.091192,0,0,0
210.64,0.59174,2.965,0.091257,0.092294,0,0,0
213.14,0.60097,2.974,0.092359,0.09358,0,0,0
215.64,0.61024,2.982,0.09343,0.094985,0,0,0
218.14,0.61873,2.991,0.094806,0.096174,0,0,0
220.64,0.6281,2.9997,0.095904,0.097333,0,0,0
223.14,0.63696,3.008,0.097062,0.09849,0,0,0
225.64,0.64609,3.016,0.098127,0.099827,0,0,0
228.14,0.65519,3.0243,0.099283,0.10113,0,0,0
230.64,0.66348,3.0326,0.10083,0.10219,0,0,0
233.14,0.67275,3.0407,0.1018,0.10344,0,0,0
235.64,0.68154,3.049,0.10293,0.10486,0,0,0
238.14,0.69044,3.057,0.10408,0.1061,0,0,0
240.64,0.69984,3.0653,0.10562,0.10709,0,0,0
243.14,0.70881,3.0733,0.10682,0.10845,0,0,0
245.64,0.71814,3.0807,0.10773,0.11004,0,0,0
248.14,0.7275,3.0887,0.10902,0.11116,0,0,0
250.64,0.73586,3.0963,0.11056,0.11245,0,0,0
253.14,0.74503,3.1043,0.112,0.11383,0,0,0
255.64,0.75399,3.1113,0.1129,0.11508,0,0,0
258.14,0.76265,3.1197,0.11425,0.11619,0,0,0
260.64,0.77195,3.127,0.11566,0.11774,0,0,0
263.14,0.78062,3.1347,0.11682,0.11903,0,0,0
265.64,0.79015,3.1427,0.11823,0.12028,0,0,0
268.14,0.79915,3.15,0.11939,0.12153,0,0,0
270.64,0.80828,3.1574,0.12064,0.1234,0,0,0
273.14,0.81741,3.1643,0.12201,0.12461,0,0,0
275.64,0.82577,3.1713,0.12349,0.12565,0,0,0
278.14,0.83507,3.179,0.12477,0.12716,0,0,0
280.64,0.844,3.1863,0.12574,0.12869,0,0,0
283.14,0.8531,3.1937,0.12716,0.13029,0,0,0
285.64,0.8624,3.2003,0.12876,0.13126,0,0,0
288.14,0.87166,3.2077,0.13009,0.13267,0,0,0
290.64,0.88086,3.2143,0.13124,0.13446,0,0,0
293.14,0.8904,3.2217,0.1328,0.13575,0,0,0
295.64,0.89919,3.228,0.13397,0.1371,0,0,0
298.14,0.90802,3.235,0.1352,0.13854,0,0,0
300.64,0.91709,3.242,0.13676,0.13985,0,0,0
303.14,0.92568,3.249,0.13813,0.14113,0,0,0
305.64,0.93538,3.2557,0.13927,0.14291,0,0,0
308.14,0.94394,3.262,0.14079,0.14433,0,0,0
310.64,0.95314,3.2693,0.14213,0.14538,0,0,0
313.14,0.96264,3.2753,0.14388,0.14706,0,0,0
315.64,0.97127,3.2823,0.14498,0.14883,0,0,0
318.14,0.98067,3.2887,0.1464,0.15027,0,0,0
320.64,0.98943,3.295,0.14785,0.15178,0,0,0
323.14,0.99843,3.3017,0.14962,0.15319,0,0,0
325.64,1.0076,3.3077,0.15083,0.15466,0,0,0
328.14,1.0167,3.3147,0.15233,0.15621,0,0,0
330.64,1.026,3.3203,0.15397,0.1581,0,0,0
333.14,1.0351,3.3267,0.15547,0.15953,0,0,0
335.64,1.0438,3.333,0.15696,0.16085,0,0,0
338.14,1.053,3.339,0.15877,0.16222,0,0,0
340.64,1.0621,3.3453,0.15991,0.16433,0,0,0
343.14,1.0707,3.351,0.16157,0.16595,0,0,0
345.64,1.0798,3.357,0.163,0.16712,0,0,0
348.14,1.0886,3.3634,0.16462,0.16859,0,0,0
350.64,1.0979,3.3693,0.16624,0.17061,0,0,0
353.14,1.1068,3.3754,0.16772,0.17193,0,0,0
355.64,1.1161,3.381,0.16942,0.174,0,0,0
358.14,1.1252,3.3863,0.17104,0.17572,0,0,0
360.64,1.1342,3.3923,0.17239,0.17715,0,0,0
363.14,1.1433,3.398,0.1742,0.17886,0,0,0
365.64,1.1526,3.403,0.17612,0.18077,0,0,0
368.14,1.1612,3.409,0.17764,0.18251,0,0,0
370.64,1.1702,3.415,0.17915,0.18418,0,0,0
373.14,1.1791,3.421,0.18095,0.18614,0,0,0
375.64,1.1882,3.426,0.18274,0.18761,0,0,0
378.14,1.1975,3.432,0.18425,0.18903,0,0,0
380.64,1.2063,3.437,0.18598,0.19103,0,0,0
383.14,1.2151,3.442,0.18757,0.19322,0,0,0
385.64,1.224,3.448,0.18904,0.19471,0,0,0
388.14,1.233,3.453,0.19098,0.19653,0,0,0
390.64,1.2423,3.4584,0.19273,0.19835,0,0,0
393.14,1.2511,3.463,0.19447,0.2002,0,0,0
395.64,1.2603,3.469,0.19613,0.20209,0,0,0
398.14,1.2696,3.474,0.19789,0.20417,0,0,0
400.64,1.2789,3.479,0.19993,0.20625,0,0,0
403.14,1.2882,3.484,0.20193,0.20792,0,0,0
405.64,1.2973,3.489,0.20377,0.21026,0,0,0
408.14,1.3065,3.494,0.20544,0.21235,0,0,0
410.64,1.3158,3.4993,0.20735,0.21406,0,0,0
413.14,1.3249,3.5044,0.20931,0.21636,0,0,0
415.64,1.3345,3.509,0.21152,0.21828,0,0,0
418.14,1.3435,3.514,0.21369,0.22001,0,0,0
420.64,1.3531,3.519,0.21534,0.22264,0,0,0
423.14,1.3625,3.524,0.21729,0.22492,0,0,0
425.64,1.3713,3.5283,0.21939,0.22669,0,0,0
428.14,1.3807,3.533,0.22147,0.2288,0,0,0
430.64,1.3902,3.5383,0.2237,0.23139,0,0,0
433.14,1.3993,3.543,0.22533,0.23357,0,0,0
435.64,1.4089,3.5473,0.22753,0.2353,0,0,0
438.14,1.4183,3.552,0.22991,0.23805,0,0,0
440.64,1.428,3.5567,0.23236,0.24064,0,0,0
443.14,1.4374,3.561,0.23446,0.24257,0,0,0
445.64,1.4472,3.5657,0.23671,0.2453,0,0,0
448.14,1.4569,3.57,0.23909,0.24824,0,0,0
450.64,1.4663,3.574,0.24126,0.25034,0,0,0
453.14,1.4756,3.579,0.24371,0.25292,0,0,0
455.64,1.4855,3.5833,0.24602,0.25573,0,0,0
458.14,1.495,3.588,0.24872,0.25817,0,0,0
460.64,1.505,3.5917,0.25123,0.26115,0,0,0
463.14,1.5147,3.596,0.25363,0.26383,0,0,0
465.64,1.5248,3.6003,0.25626,0.26654,0,0,0
468.14,1.5346,3.604,0.25899,0.26921,0,0,0
470.64,1.5446,3.6083,0.26186,0.27239,0,0,0
473.14,1.5547,3.6127,0.26457,0.27545,0,0,0
475.64,1.5648,3.6163,0.26745,0.27883,0,0,0
478.14,1.5747,3.621,0.27022,0.28167,0,0,0
480.64,1.585,3.6244,0.27319,0.28463,0,0,0
483.14,1.5951,3.628,0.27663,0.28796,0,0,0
485.64,1.6057,3.632,0.27976,0.29155,0,0,0
488.14,1.616,3.6357,0.28262,0.29451,0,0,0
490.64,1.6266,3.6397,0.28593,0.29825,0,0,0
493.14,1.6373,3.6427,0.2895,0.30181,0,0,0
495.64,1.6479,3.6467,0.29274,0.30523,0,0,0
498.14,1.6589,3.65,0.29634,0.3094,0,0,0
500.64,1.6697,3.653,0.29968,0.31282,0,0,0
503.14,1.6804,3.6563,0.30361,0.31691,0,0,0
505.64,1.6914,3.6593,0.30739,0.32099,0,0,0
508.14,1.7026,3.6623,0.31116,0.32485,0,0,0
510.64,1.7138,3.6647,0.31521,0.32936,0,0,0
513.14,1.725,3.6673,0.31978,0.33345,0,0,0
515.64,1.7369,3.6707,0.32409,0.33801,0,0,0
518.14,1.7483,3.6726,0.32879,0.34305,0,0,0
520.64,1.7601,3.675,0.33308,0.34736,0,0,0
523.14,1.7718,3.6773,0.33785,0.3524,0,0,0
525.64,1.7843,3.679,0.34301,0.35779,0,0,0
528.14,1.7969,3.6807,0.34801,0.36228,0,0,0
530.64,1.8093,3.682,0.35394,0.36823,0,0,0
533.14,1.8222,3.683,0.35951,0.37411,0,0,0
535.64,1.8355,3.683,0.36523,0.38003,0,0,0
538.14,1.8491,3.683,0.37194,0.38675,0,0,0
540.64,1.8628,3.6824,0.37817,0.39314,0,0,0
543.13,1.8772,3.6813,0.38514,0.40066,0,0,0
545.64,1.8917,3.6797,0.39229,0.40709,0,0,0
548.13,1.9065,3.677,0.40017,0.41413,0,0,0
550.64,1.9219,3.674,0.40781,0.42228,0,0,0
553.14,1.9374,3.6683,0.41606,0.4302,0,0,0
555.63,1.9533,3.6627,0.42482,0.43859,0,0,0
558.14,1.9696,3.6546,0.43386,0.44762,0,0,0
560.63,1.9863,3.6447,0.44324,0.45668,0,0,0
563.13,2.0036,3.6294,0.4537,0.46631,0,0,0
564.13,2.0111,3.6163,0.45796,0.4716,0,0,0