File: polyN_optimization/results_exp/AA6014-T4/NT20_45_3.csv
Time[s],Displacement[mm],Force[kN],AxStrain_1,AxStrain_2,Thickness[mm],OuterWidth[mm],InnerWidth[mm]
0.62,0,-0.0044298,0,0,1.1135,20,10.123
3.12,0.0019,0.080423,3.3999e-05,0,0,0,0
5.62,0.003111,0.16615,0.00016399,0,0,0,0
8.12,0.003974,0.232,0.00010799,0,0,0,0
10.62,0.005767,0.30014,0.00020198,0,0,0,0
13.12,0.007614,0.37229,0.00026496,0,0,0,0
15.62,0.008917,0.44529,0.00022198,0,0,0,0
18.12,0.010364,0.52257,0.00022198,0,0,0,0
20.62,0.012099,0.59715,0.00047289,0,0,0,0
23.12,0.014634,0.677,0.00042991,0,0,0,0
25.62,0.01681,0.75385,0.00053386,0,0,0,0
28.12,0.018293,0.83315,0.00057384,0,0,0,0
30.62,0.019801,0.91086,0.00055085,0,0,0,0
33.12,0.022587,0.98885,0.00072474,0,0,0,0
35.62,0.025088,1.065,0.00082566,0,0,0,0
38.12,0.026619,1.1383,0.0007787,0,0,0,0
40.62,0.029413,1.2119,0.00080168,0,0,0,0
43.12,0.032598,1.2751,0.001396,0,0,0,0
45.62,0.039168,1.325,0.0028599,0,0,0,0
48.12,0.04732,1.3627,0.0039542,0,0,0,0
50.62,0.057418,1.3973,0.0047059,0,0,0,0
53.12,0.068007,1.427,0.0057107,0,0,0,0
55.62,0.079371,1.4554,0.0072824,0,0,0,0
58.12,0.090587,1.481,0.0084214,0,0,0,0
60.62,0.1021,1.5047,0.0088448,0,0,0,0
63.12,0.1147,1.5273,0.0098058,0,0,0,0
65.62,0.12622,1.5483,0.011141,0,0,0,0
68.12,0.13894,1.5693,0.012422,0,0,0,0
70.62,0.15107,1.5884,0.012833,0,0,0,0
73.12,0.16363,1.6073,0.013644,0,0,0,0
75.62,0.1768,1.6253,0.014814,0,0,0,0
78.12,0.1891,1.6437,0.016261,0,0,0,0
80.62,0.20256,1.661,0.016419,0,0,0,0
83.12,0.21511,1.677,0.017034,0,0,0,0
85.62,0.22921,1.694,0.018449,0,0,0,0
88.12,0.24218,1.709,0.019599,0,0,0,0
90.62,0.25616,1.7253,0.020036,0,0,0,0
93.12,0.26971,1.74,0.020714,0,0,0,0
95.62,0.28312,1.7553,0.02195,0,0,0,0
98.12,0.29743,1.77,0.023003,0,0,0,0
100.62,0.31112,1.784,0.023515,0,0,0,0
103.12,0.32552,1.7983,0.024233,0,0,0,0
105.62,0.33864,1.8113,0.025262,0,0,0,0
108.12,0.35325,1.8253,0.026296,0,0,0,0
110.62,0.36683,1.838,0.027027,0,0,0,0
113.12,0.38135,1.8507,0.027714,0,0,0,0
115.62,0.39474,1.8637,0.02866,0,0,0,0
118.12,0.4094,1.8763,0.029639,0,0,0,0
120.62,0.42317,1.8883,0.030552,0,0,0,0
123.12,0.43696,1.9003,0.031365,0,0,0,0
125.62,0.45157,1.912,0.032049,0,0,0,0
128.12,0.46537,1.923,0.033088,0,0,0,0
130.62,0.47981,1.935,0.034127,0,0,0,0
133.12,0.49376,1.946,0.034874,0,0,0,0
135.62,0.50865,1.9577,0.035457,0,0,0,0
138.12,0.52204,1.9683,0.036526,0,0,0,0
140.62,0.537,1.979,0.037529,0,0,0,0
143.12,0.55093,1.9897,0.038175,0,0,0,0
145.62,0.5657,2,0.03895,0,0,0,0
148.12,0.57994,2.01,0.039887,0,0,0,0
150.62,0.59426,2.02,0.040887,0,0,0,0
153.12,0.6087,2.03,0.041724,0,0,0,0
155.62,0.62311,2.0396,0.042464,0,0,0,0
158.12,0.63786,2.0493,0.043365,0,0,0,0
160.62,0.65212,2.059,0.04465,0,0,0,0
163.12,0.66718,2.0683,0.045325,0,0,0,0
165.62,0.68125,2.078,0.045966,0,0,0,0
168.12,0.69635,2.0873,0.046896,0,0,0,0
170.62,0.71033,2.096,0.047985,0,0,0,0
173.12,0.7257,2.105,0.048656,0,0,0,0
175.62,0.73953,2.1136,0.049392,0,0,0,0
178.12,0.75463,2.1223,0.05051,0,0,0,0
180.62,0.76904,2.1307,0.051339,0,0,0,0
183.12,0.78347,2.139,0.052232,0,0,0,0
185.62,0.79795,2.1473,0.053092,0,0,0,0
188.12,0.81234,2.1557,0.054016,0,0,0,0
190.62,0.82706,2.1637,0.054778,0,0,0,0
193.12,0.84106,2.1713,0.055605,0,0,0,0
195.62,0.85621,2.1793,0.056716,0,0,0,0
198.12,0.86978,2.187,0.057571,0,0,0,0
200.62,0.8851,2.1947,0.058238,0,0,0,0
203.12,0.89908,2.2023,0.059155,0,0,0,0
205.62,0.91443,2.2097,0.060262,0,0,0,0
208.12,0.92827,2.2167,0.061305,0,0,0,0
210.62,0.94309,2.2247,0.061905,0,0,0,0
213.12,0.95743,2.2317,0.062915,0,0,0,0
215.62,0.97218,2.2387,0.063923,0,0,0,0
218.12,0.98654,2.2453,0.064993,0,0,0,0
220.62,1.0012,2.2527,0.06578,0,0,0,0
223.12,1.0161,2.2593,0.066628,0,0,0,0
225.62,1.0301,2.2657,0.067759,0,0,0,0
228.12,1.0452,2.2727,0.068763,0,0,0,0
230.62,1.0592,2.279,0.069701,0,0,0,0
233.12,1.0741,2.2853,0.070516,0,0,0,0
235.62,1.0882,2.2917,0.071548,0,0,0,0
238.12,1.1033,2.298,0.072579,0,0,0,0
240.62,1.1177,2.304,0.073735,0,0,0,0
243.12,1.1328,2.3103,0.07467,0,0,0,0
245.62,1.1473,2.3167,0.07551,0,0,0,0
248.12,1.162,2.322,0.076661,0,0,0,0
250.62,1.1766,2.328,0.07778,0,0,0,0
253.12,1.1913,2.334,0.078619,0,0,0,0
255.62,1.206,2.34,0.07927,0,0,0,0
258.12,1.2204,2.345,0.080635,0,0,0,0
260.62,1.2351,2.351,0.081842,0,0,0,0
263.12,1.2494,2.3563,0.082521,0,0,0,0
265.62,1.2645,2.3616,0.083419,0,0,0,0
268.12,1.2782,2.367,0.084499,0,0,0,0
270.62,1.2935,2.3727,0.085856,0,0,0,0
273.12,1.3075,2.378,0.086656,0,0,0,0
275.62,1.3224,2.383,0.08755,0,0,0,0
278.12,1.3367,2.388,0.088718,0,0,0,0
280.62,1.3514,2.393,0.090099,0,0,0,0
283.12,1.366,2.398,0.090897,0,0,0,0
285.62,1.3804,2.4027,0.091786,0,0,0,0
288.12,1.3953,2.408,0.093133,0,0,0,0
290.62,1.4099,2.412,0.094478,0,0,0,0
293.12,1.4247,2.417,0.095393,0,0,0,0
295.62,1.4391,2.422,0.09637,0,0,0,0
298.12,1.4543,2.4267,0.097589,0,0,0,0
300.62,1.4686,2.4307,0.098837,0,0,0,0
303.12,1.4835,2.4353,0.10014,0,0,0,0
305.62,1.4977,2.4397,0.10108,0,0,0,0
308.12,1.5132,2.444,0.10233,0,0,0,0
310.62,1.5276,2.4486,0.1036,0,0,0,0
313.12,1.5428,2.453,0.1049,0,0,0,0
315.62,1.5565,2.457,0.10584,0,0,0,0
318.12,1.5714,2.461,0.10693,0,0,0,0
320.62,1.5862,2.465,0.10837,0,0,0,0
323.12,1.6011,2.4697,0.10964,0,0,0,0
325.62,1.6158,2.473,0.11093,0,0,0,0
328.12,1.6305,2.477,0.11213,0,0,0,0
330.62,1.6459,2.481,0.11348,0,0,0,0
333.12,1.6605,2.485,0.11489,0,0,0,0
335.62,1.676,2.488,0.11608,0,0,0,0
338.12,1.6905,2.492,0.11725,0,0,0,0
340.62,1.7057,2.496,0.11865,0,0,0,0
343.12,1.72,2.4993,0.1202,0,0,0,0
345.62,1.7354,2.5033,0.12139,0,0,0,0
348.12,1.7498,2.5067,0.12267,0,0,0,0
350.62,1.7651,2.5103,0.12412,0,0,0,0
353.12,1.7796,2.513,0.12569,0,0,0,0
355.62,1.7951,2.5167,0.12697,0,0,0,0
358.12,1.81,2.5203,0.12836,0,0,0,0
360.62,1.8256,2.523,0.12995,0,0,0,0
363.12,1.8403,2.5263,0.13125,0,0,0,0
365.62,1.8555,2.5293,0.13272,0,0,0,0
368.12,1.8705,2.5327,0.13425,0,0,0,0
370.62,1.8857,2.5353,0.13571,0,0,0,0
373.12,1.901,2.5383,0.13709,0,0,0,0
375.62,1.9158,2.5417,0.13858,0,0,0,0
378.12,1.9316,2.5443,0.1401,0,0,0,0
380.62,1.9456,2.547,0.14153,0,0,0,0
383.12,1.961,2.5503,0.1431,0,0,0,0
385.62,1.9757,2.5523,0.14487,0,0,0,0
388.12,1.9912,2.5553,0.14609,0,0,0,0
390.62,2.0056,2.5577,0.14786,0,0,0,0
393.12,2.0215,2.5607,0.14986,0,0,0,0
395.62,2.0363,2.5627,0.15139,0,0,0,0
398.12,2.0516,2.5653,0.15306,0,0,0,0
400.62,2.067,2.5673,0.15493,0,0,0,0
403.12,2.083,2.57,0.15691,0,0,0,0
405.62,2.0979,2.5723,0.15878,0,0,0,0
408.12,2.1134,2.5743,0.16041,0,0,0,0
410.62,2.1289,2.5767,0.16258,0,0,0,0
413.12,2.1445,2.579,0.16418,0,0,0,0
415.62,2.1601,2.581,0.16591,0,0,0,0
418.12,2.1758,2.583,0.16802,0,0,0,0
420.62,2.1916,2.585,0.17009,0,0,0,0
423.12,2.2069,2.587,0.17198,0,0,0,0
425.62,2.2224,2.5887,0.17407,0,0,0,0
428.12,2.2379,2.5907,0.17652,0,0,0,0
430.62,2.254,2.5923,0.17877,0,0,0,0
433.12,2.2694,2.5937,0.18093,0,0,0,0
435.62,2.2852,2.5957,0.18359,0,0,0,0
438.12,2.3012,2.5973,0.18585,0,0,0,0
440.62,2.3171,2.5983,0.1883,0,0,0,0
443.12,2.3327,2.6,0.19094,0,0,0,0
445.62,2.3489,2.601,0.19363,0,0,0,0
448.12,2.3644,2.603,0.19603,0,0,0,0
450.62,2.3808,2.604,0.19859,0,0,0,0
453.12,2.3963,2.605,0.20107,0,0,0,0
455.62,2.4123,2.6063,0.20389,0,0,0,0
458.12,2.4279,2.6073,0.20657,0,0,0,0
460.62,2.4442,2.6083,0.20938,0,0,0,0
463.12,2.4604,2.609,0.21245,0,0,0,0
465.62,2.476,2.6097,0.21567,0,0,0,0
468.12,2.4916,2.6107,0.21875,0,0,0,0
470.62,2.5081,2.6113,0.22207,0,0,0,0
473.12,2.5239,2.612,0.22545,0,0,0,0
475.62,2.5404,2.612,0.22912,0,0,0,0
478.12,2.5564,2.612,0.23285,0,0,0,0
480.62,2.573,2.6123,0.23662,0,0,0,0
483.12,2.589,2.6127,0.24077,0,0,0,0
485.62,2.6056,2.6127,0.24469,0,0,0,0
488.12,2.6223,2.612,0.24875,0,0,0,0
490.62,2.6386,2.612,0.25304,0,0,0,0
493.12,2.6548,2.612,0.25728,0,0,0,0
495.62,2.6715,2.611,0.26181,0,0,0,0
498.12,2.688,2.61,0.26676,0,0,0,0
500.62,2.7046,2.609,0.27161,0,0,0,0
503.12,2.7208,2.608,0.27674,0,0,0,0
505.62,2.7376,2.6064,0.28199,0,0,0,0
508.12,2.754,2.6043,0.28747,0,0,0,0
510.62,2.771,2.6023,0.29342,0,0,0,0
513.12,2.7876,2.5997,0.29973,0,0,0,0
515.62,2.8047,2.5977,0.30593,0,0,0,0
518.12,2.821,2.5943,0.31256,0,0,0,0
520.62,2.8382,2.591,0.31936,0,0,0,0
523.12,2.8547,2.5866,0.32641,0,0,0,0
525.62,2.8718,2.5816,0.33379,0,0,0,0
528.12,2.8885,2.5767,0.34122,0,0,0,0
530.62,2.9061,2.5703,0.34899,0,0,0,0
533.12,2.9229,2.5634,0.35689,0,0,0,0
535.62,2.9405,2.555,0.36492,0,0,0,0
538.12,2.9576,2.546,0.37307,0,0,0,0
540.62,2.9753,2.5353,0.38154,0,0,0,0
543.12,2.9923,2.5233,0.39033,0,0,0,0
545.62,3.0104,2.5094,0.3993,0,0,0,0
548.12,3.0279,2.4944,0.40868,0,0,0,0
550.62,3.0462,2.4763,0.41807,0,0,0,0
553.12,3.0646,2.4567,0.42763,0,0,0,0
555.62,3.0835,2.4334,0.43729,0,0,0,0
558.12,3.102,2.4077,0.44727,0,0,0,0
560.62,3.122,2.3753,0.45805,0,0,0,0
561.12,3.1258,2.3644,0.46039,0,0,0,0