File: polyN_optimization/results_exp/AA6014-T4/NT20_45_1.csv
Time[s],Displacement[mm],Force[kN],AxStrain_1,AxStrain_2,Thickness[mm],OuterWidth[mm],InnerWidth[mm]
0.58,0,-0.0051959,0,0,1.1144,20,9.9496
3.08,0.002291,0.087855,0.00021598,0,0,0,0
5.58,0.00377,0.173,0.00024097,0,0,0,0
8.08,0.004968,0.25785,0.00021198,0,0,0,0
10.58,0.006732,0.31814,0.0004469,0,0,0,0
13.08,0.008798,0.38914,0.00053686,0,0,0,0
15.58,0.010357,0.46486,0.0004569,0,0,0,0
18.08,0.011552,0.54,0.00057384,0,0,0,0
20.58,0.013436,0.62014,0.00066078,0,0,0,0
23.08,0.016105,0.69715,0.00083265,0,0,0,0
25.58,0.018203,0.778,0.0010035,0,0,0,0
28.08,0.019754,0.85571,0.00094955,0,0,0,0
30.58,0.02154,0.93386,0.0010235,0,0,0,0
33.08,0.023967,1.0124,0.0011513,0,0,0,0
35.58,0.026653,1.0881,0.0013251,0,0,0,0
38.08,0.029261,1.162,0.001396,0,0,0,0
40.58,0.031612,1.2313,0.0014589,0,0,0,0
43.08,0.036372,1.2951,0.0020998,0,0,0,0
45.58,0.043204,1.3386,0.0035058,0,0,0,0
48.08,0.051983,1.3767,0.0047527,0,0,0,0
50.58,0.062666,1.41,0.0052233,0,0,0,0
53.08,0.072932,1.4396,0.0062514,0,0,0,0
55.58,0.084256,1.4666,0.0076923,0,0,0,0
58.08,0.096187,1.492,0.0090509,0,0,0,0
60.58,0.10786,1.5163,0.0095661,0,0,0,0
63.08,0.12067,1.538,0.010158,0,0,0,0
65.58,0.13247,1.5597,0.011656,0,0,0,0
68.08,0.14553,1.5796,0.012737,0,0,0,0
70.58,0.15774,1.5997,0.013327,0,0,0,0
73.08,0.17041,1.618,0.013814,0,0,0,0
75.58,0.18338,1.6363,0.015214,0,0,0,0
78.08,0.19628,1.6537,0.016446,0,0,0,0
80.58,0.20974,1.6711,0.016965,0,0,0,0
83.08,0.22214,1.6876,0.017595,0,0,0,0
85.58,0.23601,1.704,0.018854,0,0,0,0
88.08,0.24913,1.72,0.019971,0,0,0,0
90.58,0.26298,1.735,0.020563,0,0,0,0
93.08,0.27663,1.7504,0.021247,0,0,0,0
95.58,0.29052,1.765,0.022295,0,0,0,0
98.08,0.30451,1.78,0.023365,0,0,0,0
100.58,0.31816,1.7944,0.024122,0,0,0,0
103.08,0.33244,1.808,0.025023,0,0,0,0
105.58,0.34607,1.8217,0.025691,0,0,0,0
108.08,0.36067,1.835,0.026636,0,0,0,0
110.58,0.37429,1.8483,0.027426,0,0,0,0
113.08,0.38898,1.8613,0.028335,0,0,0,0
115.58,0.40252,1.8737,0.029248,0,0,0,0
118.08,0.41704,1.886,0.029999,0,0,0,0
120.58,0.43098,1.8983,0.030975,0,0,0,0
123.08,0.44527,1.91,0.031691,0,0,0,0
125.58,0.45953,1.9217,0.032634,0,0,0,0
128.08,0.47371,1.9337,0.033381,0,0,0,0
130.58,0.48827,1.9444,0.034225,0,0,0,0
133.08,0.50171,1.956,0.035165,0,0,0,0
135.58,0.51691,1.967,0.036008,0,0,0,0
138.08,0.53084,1.978,0.036849,0,0,0,0
140.58,0.54567,1.9887,0.037529,0,0,0,0
143.08,0.5596,1.999,0.038596,0,0,0,0
145.58,0.57429,2.01,0.039371,0,0,0,0
148.08,0.58842,2.02,0.040177,0,0,0,0
150.58,0.60292,2.03,0.041112,0,0,0,0
153.08,0.61723,2.04,0.041627,0,0,0,0
155.58,0.63158,2.0497,0.042561,0,0,0,0
158.08,0.64628,2.059,0.04359,0,0,0,0
160.58,0.66066,2.0683,0.044329,0,0,0,0
163.08,0.67557,2.078,0.0451,0,0,0,0
165.58,0.68941,2.0873,0.046126,0,0,0,0
168.08,0.70464,2.0967,0.047183,0,0,0,0
170.58,0.71884,2.1057,0.04792,0,0,0,0
173.08,0.73377,2.1143,0.04872,0,0,0,0
175.58,0.74786,2.1233,0.049616,0,0,0,0
178.08,0.76278,2.132,0.050732,0,0,0,0
180.58,0.77699,2.1407,0.051403,0,0,0,0
183.08,0.79205,2.1487,0.052263,0,0,0,0
185.58,0.80652,2.1567,0.053314,0,0,0,0
188.08,0.82099,2.165,0.054014,0,0,0,0
190.58,0.83569,2.173,0.055064,0,0,0,0
193.08,0.84989,2.181,0.05589,0,0,0,0
195.58,0.86456,2.1887,0.056619,0,0,0,0
198.08,0.87875,2.1963,0.057697,0,0,0,0
200.58,0.89383,2.204,0.05868,0,0,0,0
203.08,0.90767,2.2113,0.059535,0,0,0,0
205.58,0.92304,2.2187,0.060293,0,0,0,0
208.08,0.93724,2.226,0.061304,0,0,0,0
210.58,0.95183,2.2333,0.062252,0,0,0,0
213.08,0.96633,2.2407,0.063009,0,0,0,0
215.58,0.98127,2.2477,0.063923,0,0,0,0
218.08,0.9957,2.255,0.064835,0,0,0,0
220.58,1.0103,2.2613,0.065842,0,0,0,0
223.08,1.0249,2.268,0.066817,0,0,0,0
225.58,1.0392,2.2747,0.067632,0,0,0,0
228.08,1.0538,2.2813,0.068636,0,0,0,0
230.58,1.0681,2.288,0.06967,0,0,0,0
233.08,1.0831,2.294,0.07064,0,0,0,0
235.58,1.097,2.3007,0.071485,0,0,0,0
238.08,1.112,2.307,0.072422,0,0,0,0
240.58,1.1261,2.313,0.073359,0,0,0,0
243.08,1.1413,2.319,0.074419,0,0,0,0
245.58,1.1556,2.325,0.075416,0,0,0,0
248.08,1.1706,2.331,0.076194,0,0,0,0
250.58,1.1849,2.3367,0.07719,0,0,0,0
253.08,1.1996,2.3427,0.078308,0,0,0,0
255.58,1.2144,2.348,0.079331,0,0,0,0
258.08,1.229,2.3537,0.080232,0,0,0,0
260.58,1.2435,2.3597,0.081284,0,0,0,0
263.08,1.2576,2.365,0.082305,0,0,0,0
265.58,1.2725,2.37,0.083233,0,0,0,0
268.08,1.2865,2.3753,0.084344,0,0,0,0
270.58,1.3014,2.3803,0.085147,0,0,0,0
273.08,1.3153,2.386,0.086318,0,0,0,0
275.58,1.3307,2.391,0.087518,0,0,0,0
278.08,1.345,2.396,0.088533,0,0,0,0
280.58,1.3597,2.401,0.0897,0,0,0,0
283.08,1.3742,2.406,0.090651,0,0,0,0
285.58,1.3887,2.411,0.091877,0,0,0,0
288.08,1.4033,2.416,0.093071,0,0,0,0
290.58,1.4178,2.42,0.093928,0,0,0,0
293.08,1.433,2.425,0.094936,0,0,0,0
295.58,1.4471,2.4297,0.096218,0,0,0,0
298.08,1.462,2.4343,0.097467,0,0,0,0
300.58,1.4762,2.439,0.098411,0,0,0,0
303.08,1.4913,2.443,0.099749,0,0,0,0
305.58,1.5053,2.4477,0.10087,0,0,0,0
308.08,1.5198,2.452,0.10212,0,0,0,0
310.58,1.5341,2.4563,0.10318,0,0,0,0
313.08,1.5489,2.4604,0.10415,0,0,0,0
315.58,1.5631,2.4643,0.10569,0,0,0,0
318.08,1.5781,2.4687,0.10678,0,0,0,0
320.58,1.5924,2.4727,0.10771,0,0,0,0
323.08,1.6073,2.477,0.10916,0,0,0,0
325.58,1.622,2.4807,0.1103,0,0,0,0
328.08,1.6368,2.4847,0.1115,0,0,0,0
330.58,1.6514,2.4887,0.11276,0,0,0,0
333.08,1.6659,2.492,0.11387,0,0,0,0
335.58,1.6813,2.4957,0.1154,0,0,0,0
338.08,1.6956,2.4993,0.11659,0,0,0,0
340.58,1.7104,2.503,0.11773,0,0,0,0
343.08,1.7249,2.5067,0.11913,0,0,0,0
345.58,1.74,2.51,0.12065,0,0,0,0
348.08,1.7545,2.5137,0.12181,0,0,0,0
350.58,1.7696,2.517,0.12318,0,0,0,0
353.08,1.7842,2.5203,0.1246,0,0,0,0
355.58,1.7991,2.5237,0.12608,0,0,0,0
358.08,1.8138,2.527,0.12738,0,0,0,0
360.58,1.8295,2.5303,0.12877,0,0,0,0
363.08,1.8444,2.5327,0.13037,0,0,0,0
365.58,1.8595,2.536,0.13181,0,0,0,0
368.08,1.8745,2.5393,0.13343,0,0,0,0
370.58,1.8897,2.5427,0.13472,0,0,0,0
373.08,1.9046,2.545,0.13639,0,0,0,0
375.58,1.9196,2.5483,0.13776,0,0,0,0
378.08,1.9346,2.5513,0.1392,0,0,0,0
380.58,1.9498,2.5533,0.14092,0,0,0,0
383.08,1.9649,2.5563,0.14235,0,0,0,0
385.58,1.9796,2.5593,0.14404,0,0,0,0
388.08,1.9949,2.5613,0.14566,0,0,0,0
390.58,2.0098,2.5647,0.14743,0,0,0,0
393.08,2.0251,2.567,0.14894,0,0,0,0
395.58,2.0397,2.5697,0.15067,0,0,0,0
398.08,2.0553,2.5717,0.1526,0,0,0,0
400.58,2.0704,2.5747,0.15436,0,0,0,0
403.08,2.0862,2.5767,0.15609,0,0,0,0
405.58,2.101,2.579,0.15818,0,0,0,0
408.08,2.1169,2.5813,0.15995,0,0,0,0
410.58,2.132,2.5837,0.16181,0,0,0,0
413.08,2.1476,2.5853,0.16355,0,0,0,0
415.58,2.1628,2.5877,0.16572,0,0,0,0
418.08,2.1784,2.5893,0.16762,0,0,0,0
420.58,2.1936,2.5917,0.16964,0,0,0,0
423.08,2.2094,2.593,0.17156,0,0,0,0
425.58,2.2244,2.5953,0.17349,0,0,0,0
428.08,2.2398,2.597,0.17554,0,0,0,0
430.58,2.2557,2.599,0.17771,0,0,0,0
433.08,2.2712,2.6007,0.17987,0,0,0,0
435.58,2.2869,2.6027,0.1822,0,0,0,0
438.08,2.3026,2.6037,0.18457,0,0,0,0
440.58,2.3185,2.605,0.18683,0,0,0,0
443.08,2.3337,2.6063,0.18928,0,0,0,0
445.58,2.3499,2.608,0.19181,0,0,0,0
448.08,2.3655,2.6093,0.19449,0,0,0,0
450.58,2.3817,2.6107,0.19675,0,0,0,0
453.08,2.3969,2.6117,0.19926,0,0,0,0
455.58,2.4134,2.613,0.20179,0,0,0,0
458.08,2.4287,2.614,0.2045,0,0,0,0
460.58,2.4448,2.615,0.20734,0,0,0,0
463.08,2.4603,2.616,0.21031,0,0,0,0
465.58,2.4767,2.6167,0.21322,0,0,0,0
468.08,2.4922,2.6173,0.21617,0,0,0,0
470.58,2.5084,2.618,0.21927,0,0,0,0
473.08,2.5246,2.6187,0.22272,0,0,0,0
475.58,2.541,2.619,0.22621,0,0,0,0
478.08,2.5571,2.619,0.22976,0,0,0,0
480.58,2.5735,2.6194,0.23341,0,0,0,0
483.08,2.5893,2.6197,0.23692,0,0,0,0
485.58,2.6058,2.62,0.2411,0,0,0,0
488.08,2.6222,2.62,0.24512,0,0,0,0
490.58,2.6386,2.619,0.24921,0,0,0,0
493.08,2.6546,2.619,0.25342,0,0,0,0
495.58,2.6715,2.618,0.25801,0,0,0,0
498.08,2.6881,2.6173,0.2628,0,0,0,0
500.58,2.705,2.6167,0.26779,0,0,0,0
503.08,2.721,2.6153,0.27281,0,0,0,0
505.58,2.7377,2.6137,0.27829,0,0,0,0
508.08,2.7543,2.6123,0.2842,0,0,0,0
510.58,2.7711,2.6103,0.2902,0,0,0,0
513.08,2.7877,2.6083,0.29641,0,0,0,0
515.58,2.8046,2.6053,0.30266,0,0,0,0
518.08,2.8212,2.6023,0.30916,0,0,0,0
520.58,2.8378,2.5987,0.31583,0,0,0,0
523.08,2.8549,2.595,0.323,0,0,0,0
525.58,2.8719,2.5907,0.33036,0,0,0,0
528.08,2.8889,2.585,0.33781,0,0,0,0
530.58,2.9059,2.5793,0.34601,0,0,0,0
533.08,2.923,2.572,0.35391,0,0,0,0
535.58,2.9402,2.5643,0.36247,0,0,0,0
538.08,2.9575,2.5554,0.3715,0,0,0,0
540.58,2.9751,2.5453,0.38062,0,0,0,0
543.08,2.9924,2.5337,0.39017,0,0,0,0
545.58,3.0103,2.52,0.39931,0,0,0,0
548.08,3.028,2.5053,0.40939,0,0,0,0
550.58,3.0462,2.4883,0.42036,0,0,0,0
553.08,3.0643,2.4691,0.43242,0,0,0,0
555.58,3.0832,2.4467,0.44494,0,0,0,0
558.08,3.1021,2.4194,0.45928,0,0,0,0
559.08,3.1099,2.4049,0.4655,0,0,0,0