File: polyN_optimization/results_exp/AA6014-T4/NT20_90_3.csv
Time[s],Displacement[mm],Force[kN],AxStrain_1,AxStrain_2,Thickness[mm],OuterWidth[mm],InnerWidth[mm]
0.62,0,-0.0042109,0,0,1.1177,20,10.066
3.12,0.00115,0.079427,0.00013199,0,0,0,0
5.62,0.002842,0.16814,8.5996e-05,0,0,0,0
8.12,0.004359,0.23772,3.9999e-05,0,0,0,0
10.62,0.006393,0.30429,0.00013599,0,0,0,0
13.12,0.008331,0.375,0.00024497,0,0,0,0
15.62,0.009675,0.44815,0.0004569,0,0,0,0
18.12,0.011126,0.52485,0.00032595,0,0,0,0
20.62,0.012532,0.60114,0.0004529,0,0,0,0
23.12,0.015201,0.68015,0.00060082,0,0,0,0
25.62,0.017548,0.756,0.00072174,0,0,0,0
28.12,0.019052,0.83414,0.00073473,0,0,0,0
30.62,0.020882,0.90886,0.00069776,0,0,0,0
33.12,0.02301,0.98571,0.00051387,0,0,0,0
35.62,0.025797,1.059,0.00087562,0,0,0,0
38.12,0.027825,1.1319,0.0009995,0,0,0,0
40.62,0.03004,1.2034,0.00095255,0,0,0,0
43.12,0.033233,1.2704,0.0010435,0,0,0,0
45.62,0.03752,1.331,0.0019491,0,0,0,0
48.12,0.045387,1.3683,0.0039333,0,0,0,0
50.62,0.055394,1.4031,0.0046661,0,0,0,0
53.12,0.065483,1.4336,0.0057614,0,0,0,0
55.62,0.076263,1.462,0.0073926,0,0,0,0
58.12,0.088151,1.4877,0.0088646,0,0,0,0
60.62,0.098925,1.5116,0.0091966,0,0,0,0
63.12,0.11162,1.5343,0.010137,0,0,0,0
65.62,0.12326,1.5567,0.011556,0,0,0,0
68.12,0.13556,1.5776,0.01289,0,0,0,0
70.62,0.14774,1.5973,0.013347,0,0,0,0
73.12,0.15988,1.6167,0.01384,0,0,0,0
75.62,0.17318,1.6346,0.015213,0,0,0,0
78.12,0.18532,1.653,0.016456,0,0,0,0
80.62,0.19882,1.67,0.016855,0,0,0,0
83.12,0.21157,1.6873,0.017294,0,0,0,0
85.62,0.22536,1.704,0.018554,0,0,0,0
88.12,0.23865,1.72,0.019848,0,0,0,0
90.62,0.25186,1.7366,0.020174,0,0,0,0
93.12,0.2658,1.7517,0.020657,0,0,0,0
95.62,0.27907,1.767,0.021827,0,0,0,0
98.12,0.2932,1.7816,0.023016,0,0,0,0
100.62,0.30649,1.7967,0.023809,0,0,0,0
103.12,0.32077,1.8103,0.024363,0,0,0,0
105.62,0.33425,1.8246,0.025342,0,0,0,0
108.12,0.34836,1.838,0.026386,0,0,0,0
110.62,0.36224,1.8517,0.026975,0,0,0,0
113.12,0.37617,1.8647,0.027746,0,0,0,0
115.62,0.39005,1.8773,0.028463,0,0,0,0
118.12,0.4041,1.8903,0.029604,0,0,0,0
120.62,0.41829,1.9023,0.030126,0,0,0,0
123.12,0.43178,1.9143,0.031135,0,0,0,0
125.62,0.44649,1.9267,0.031818,0,0,0,0
128.12,0.45987,1.9383,0.032826,0,0,0,0
130.62,0.47466,1.95,0.033541,0,0,0,0
133.12,0.48829,1.9617,0.034319,0,0,0,0
135.62,0.50296,1.9733,0.034968,0,0,0,0
138.12,0.51654,1.984,0.035876,0,0,0,0
140.62,0.53075,1.995,0.036653,0,0,0,0
143.12,0.54486,2.0053,0.037591,0,0,0,0
145.62,0.5589,2.016,0.038205,0,0,0,0
148.12,0.57354,2.0267,0.039012,0,0,0,0
150.62,0.58733,2.037,0.040013,0,0,0,0
153.12,0.60208,2.047,0.040754,0,0,0,0
155.62,0.61571,2.057,0.041528,0,0,0,0
158.12,0.63064,2.067,0.042526,0,0,0,0
160.62,0.64448,2.0767,0.043394,0,0,0,0
163.12,0.65932,2.086,0.043908,0,0,0,0
165.62,0.67329,2.096,0.04484,0,0,0,0
168.12,0.6878,2.105,0.045674,0,0,0,0
170.62,0.70216,2.1143,0.046732,0,0,0,0
173.12,0.71637,2.1236,0.047244,0,0,0,0
175.62,0.73093,2.1327,0.048204,0,0,0,0
178.12,0.74491,2.141,0.0491,0,0,0,0
180.62,0.75966,2.15,0.049994,0,0,0,0
183.12,0.77319,2.158,0.05057,0,0,0,0
185.62,0.78805,2.167,0.051463,0,0,0,0
188.12,0.80165,2.175,0.052515,0,0,0,0
190.62,0.81648,2.1827,0.053088,0,0,0,0
193.12,0.83025,2.1913,0.053883,0,0,0,0
195.62,0.84471,2.199,0.054805,0,0,0,0
198.12,0.85851,2.2067,0.055917,0,0,0,0
200.62,0.87267,2.2147,0.056551,0,0,0,0
203.12,0.88677,2.222,0.057376,0,0,0,0
205.62,0.90087,2.2297,0.058359,0,0,0,0
208.12,0.91548,2.2367,0.059245,0,0,0,0
210.62,0.92905,2.244,0.059846,0,0,0,0
213.12,0.94391,2.2513,0.060573,0,0,0,0
215.62,0.95772,2.2583,0.061583,0,0,0,0
218.12,0.97239,2.265,0.062499,0,0,0,0
220.62,0.98616,2.2724,0.063256,0,0,0,0
223.12,1.0005,2.279,0.064012,0,0,0,0
225.62,1.0145,2.2857,0.064861,0,0,0,0
228.12,1.0288,2.2923,0.065994,0,0,0,0
230.62,1.0429,2.2987,0.066811,0,0,0,0
233.12,1.0569,2.3053,0.067501,0,0,0,0
235.62,1.0712,2.3117,0.068348,0,0,0,0
238.12,1.0851,2.318,0.069476,0,0,0,0
240.62,1.0999,2.3243,0.070477,0,0,0,0
243.12,1.1136,2.331,0.071135,0,0,0,0
245.62,1.1282,2.3367,0.071948,0,0,0,0
248.12,1.1419,2.3427,0.072947,0,0,0,0
250.62,1.1566,2.349,0.074007,0,0,0,0
253.12,1.1705,2.355,0.074724,0,0,0,0
255.62,1.1845,2.361,0.075627,0,0,0,0
258.12,1.1986,2.3663,0.076716,0,0,0,0
260.62,1.2125,2.372,0.077773,0,0,0,0
263.12,1.2266,2.3776,0.078611,0,0,0,0
265.62,1.2406,2.383,0.079386,0,0,0,0
268.12,1.2549,2.389,0.080502,0,0,0,0
270.62,1.2684,2.394,0.081554,0,0,0,0
273.12,1.2828,2.4,0.082699,0,0,0,0
275.62,1.2964,2.405,0.083317,0,0,0,0
278.12,1.311,2.41,0.08449,0,0,0,0
280.62,1.3247,2.415,0.085569,0,0,0,0
283.12,1.3392,2.4206,0.086524,0,0,0,0
285.62,1.3533,2.4253,0.087386,0,0,0,0
288.12,1.3677,2.4307,0.088308,0,0,0,0
290.62,1.3822,2.435,0.089445,0,0,0,0
293.12,1.396,2.44,0.090611,0,0,0,0
295.62,1.4108,2.445,0.091378,0,0,0,0
298.12,1.4249,2.45,0.092357,0,0,0,0
300.62,1.4394,2.4543,0.09355,0,0,0,0
303.12,1.4535,2.459,0.094774,0,0,0,0
305.62,1.4681,2.464,0.095688,0,0,0,0
308.12,1.4822,2.4687,0.096665,0,0,0,0
310.62,1.4969,2.473,0.097852,0,0,0,0
313.12,1.5109,2.477,0.099282,0,0,0,0
315.62,1.5252,2.4817,0.10019,0,0,0,0
318.12,1.5396,2.486,0.10132,0,0,0,0
320.62,1.5542,2.49,0.10259,0,0,0,0
323.12,1.5687,2.4947,0.10365,0,0,0,0
325.62,1.5831,2.4984,0.10471,0,0,0,0
328.12,1.5982,2.503,0.10586,0,0,0,0
330.62,1.612,2.507,0.107,0,0,0,0
333.12,1.6269,2.511,0.1083,0,0,0,0
335.62,1.641,2.5143,0.10957,0,0,0,0
338.12,1.6557,2.5183,0.11068,0,0,0,0
340.62,1.6699,2.5227,0.11173,0,0,0,0
343.12,1.685,2.5263,0.11314,0,0,0,0
345.62,1.6988,2.5303,0.11434,0,0,0,0
348.12,1.7135,2.534,0.11566,0,0,0,0
350.62,1.728,2.5373,0.11703,0,0,0,0
353.12,1.7428,2.541,0.11828,0,0,0,0
355.62,1.7571,2.5443,0.11951,0,0,0,0
358.12,1.7722,2.548,0.12076,0,0,0,0
360.62,1.7871,2.551,0.1223,0,0,0,0
363.12,1.8019,2.5547,0.12355,0,0,0,0
365.62,1.8168,2.558,0.12477,0,0,0,0
368.12,1.8311,2.5613,0.1261,0,0,0,0
370.62,1.8464,2.5643,0.12775,0,0,0,0
373.12,1.861,2.5673,0.12902,0,0,0,0
375.62,1.8763,2.5707,0.13023,0,0,0,0
378.12,1.8908,2.5737,0.13171,0,0,0,0
380.62,1.906,2.5763,0.13335,0,0,0,0
383.12,1.9203,2.5793,0.13482,0,0,0,0
385.62,1.9357,2.5823,0.13626,0,0,0,0
388.12,1.9502,2.5853,0.13772,0,0,0,0
390.62,1.9655,2.588,0.13971,0,0,0,0
393.12,1.9802,2.5907,0.14134,0,0,0,0
395.62,1.9954,2.593,0.14294,0,0,0,0
398.12,2.0104,2.5953,0.14466,0,0,0,0
400.62,2.0257,2.5983,0.14634,0,0,0,0
403.12,2.041,2.6003,0.14811,0,0,0,0
405.62,2.0562,2.6033,0.14976,0,0,0,0
408.12,2.0715,2.6053,0.15155,0,0,0,0
410.62,2.0867,2.6077,0.15342,0,0,0,0
413.12,2.1022,2.6097,0.15507,0,0,0,0
415.62,2.1174,2.6123,0.15679,0,0,0,0
418.12,2.1332,2.6143,0.15874,0,0,0,0
420.62,2.1482,2.6163,0.16068,0,0,0,0
423.12,2.1638,2.6183,0.16248,0,0,0,0
425.62,2.1787,2.6203,0.16456,0,0,0,0
428.12,2.1945,2.6223,0.16661,0,0,0,0
430.62,2.2099,2.6237,0.16894,0,0,0,0
433.12,2.2257,2.6257,0.17112,0,0,0,0
435.62,2.2409,2.6273,0.17341,0,0,0,0
438.12,2.257,2.6283,0.17572,0,0,0,0
440.62,2.2724,2.63,0.17828,0,0,0,0
443.12,2.2884,2.6317,0.18053,0,0,0,0
445.62,2.304,2.633,0.18305,0,0,0,0
448.12,2.32,2.634,0.18573,0,0,0,0
450.62,2.3351,2.636,0.18829,0,0,0,0
453.12,2.3514,2.637,0.19096,0,0,0,0
455.62,2.3668,2.6377,0.19356,0,0,0,0
458.12,2.3828,2.6387,0.19635,0,0,0,0
460.61,2.3985,2.6393,0.19933,0,0,0,0
463.11,2.4147,2.64,0.2027,0,0,0,0
465.62,2.4303,2.6403,0.2058,0,0,0,0
468.12,2.4465,2.6413,0.20913,0,0,0,0
470.61,2.4625,2.642,0.21288,0,0,0,0
473.12,2.4785,2.642,0.21632,0,0,0,0
475.61,2.495,2.642,0.22015,0,0,0,0
478.12,2.511,2.642,0.22405,0,0,0,0
480.61,2.5272,2.6417,0.22831,0,0,0,0
483.11,2.5436,2.641,0.23255,0,0,0,0
485.61,2.5606,2.6407,0.2368,0,0,0,0
488.12,2.5769,2.639,0.2418,0,0,0,0
490.61,2.5933,2.6383,0.24674,0,0,0,0
493.11,2.6096,2.637,0.25198,0,0,0,0
495.62,2.6263,2.6353,0.25726,0,0,0,0
498.11,2.6428,2.6333,0.26262,0,0,0,0
500.61,2.6596,2.631,0.2686,0,0,0,0
503.11,2.6761,2.6283,0.27479,0,0,0,0
505.61,2.6931,2.6243,0.28146,0,0,0,0
508.12,2.7101,2.6203,0.28813,0,0,0,0
510.62,2.7272,2.616,0.2951,0,0,0,0
513.12,2.7442,2.6107,0.30253,0,0,0,0
515.61,2.7613,2.604,0.31012,0,0,0,0
518.11,2.7783,2.5973,0.31762,0,0,0,0
520.61,2.7958,2.5897,0.32544,0,0,0,0
523.12,2.8129,2.581,0.33359,0,0,0,0
525.61,2.8303,2.571,0.34172,0,0,0,0
528.11,2.8476,2.56,0.35001,0,0,0,0
530.61,2.8656,2.5477,0.35877,0,0,0,0
533.11,2.8832,2.5344,0.36782,0,0,0,0
535.61,2.901,2.519,0.37664,0,0,0,0
538.11,2.9188,2.5027,0.38618,0,0,0,0
540.61,2.9369,2.4847,0.39611,0,0,0,0
543.11,2.9551,2.4647,0.40584,0,0,0,0
545.61,2.9738,2.4424,0.4158,0,0,0,0
548.11,2.9924,2.418,0.42658,0,0,0,0
550.61,3.0114,2.39,0.43729,0,0,0,0
553.11,3.0309,2.3571,0.45636,0,0,0,0
554.11,3.0393,2.3407,0.46186,0,0,0,0