File: polyN_optimization/results_exp/AA6014-T4/NT6_00_3.csv
Time[s],Displacement[mm],Force[kN],AxStrain_1,AxStrain_2,Thickness[mm],OuterWidth[mm],InnerWidth[mm]
0.59,0,-0.0063603,0,0,1.0996,20,10
2.59,0.001746,0.062436,-1.3e-05,0,0,0,0
4.59,0.002769,0.13815,-5.2001e-05,0,0,0,0
6.59,0.003827,0.20071,0.00010799,0,0,0,0
8.59,0.004863,0.24529,-6e-06,0,0,0,0
10.59,0.006397,0.305,0.00027996,0,0,0,0
12.59,0.008158,0.36385,0.00026397,0,0,0,0
14.59,0.00893,0.42215,0.00028896,0,0,0,0
16.59,0.010048,0.482,0.00033894,0,0,0,0
18.59,0.010867,0.54429,0.00033894,0,0,0,0
20.59,0.012432,0.60629,0.00030895,0,0,0,0
22.59,0.014366,0.66915,0.00048288,0,0,0,0
24.59,0.016293,0.73485,0.00050687,0,0,0,0
26.59,0.017333,0.797,0.00052386,0,0,0,0
28.59,0.018142,0.861,0.00060082,0,0,0,0
30.59,0.019502,0.92385,0.00057084,0,0,0,0
32.59,0.021714,0.98486,0.00071774,0,0,0,0
34.59,0.023772,1.0473,0.00082266,0,0,0,0
36.59,0.025317,1.1081,0.00071175,0,0,0,0
38.59,0.026848,1.169,0.00059782,0,0,0,0
40.59,0.028335,1.2279,0.00083565,0,0,0,0
42.59,0.030249,1.2856,0.0010335,0,0,0,0
44.59,0.032985,1.3427,0.0011613,0,0,0,0
46.59,0.035613,1.3971,0.0015029,0,0,0,0
48.59,0.039098,1.4441,0.0017814,0,0,0,0
50.59,0.044779,1.4853,0.0025148,0,0,0,0
52.59,0.050741,1.5207,0.0033683,0,0,0,0
54.59,0.057146,1.5527,0.0044949,0,0,0,0
56.59,0.064653,1.5819,0.0057713,0,0,0,0
58.59,0.072284,1.6089,0.006468,0,0,0,0
60.59,0.080147,1.6349,0.0071156,0,0,0,0
62.59,0.088328,1.6583,0.007862,0,0,0,0
64.59,0.097275,1.6813,0.0090737,0,0,0,0
66.59,0.10561,1.703,0.01026,0,0,0,0
68.59,0.11453,1.724,0.011031,0,0,0,0
70.59,0.12452,1.7437,0.011469,0,0,0,0
72.59,0.13362,1.7634,0.01203,0,0,0,0
74.59,0.14284,1.7826,0.012872,0,0,0,0
76.59,0.15276,1.801,0.01424,0,0,0,0
78.59,0.16259,1.8194,0.015018,0,0,0,0
80.59,0.17191,1.837,0.015232,0,0,0,0
82.59,0.18254,1.8543,0.015702,0,0,0,0
84.59,0.19199,1.8707,0.016663,0,0,0,0
86.59,0.20183,1.8874,0.017845,0,0,0,0
88.59,0.21285,1.9033,0.018471,0,0,0,0
90.59,0.22273,1.919,0.019064,0,0,0,0
92.59,0.23265,1.9343,0.019357,0,0,0,0
94.59,0.24344,1.9493,0.020417,0,0,0,0
96.59,0.25339,1.9644,0.02141,0,0,0,0
98.59,0.26378,1.979,0.022037,0,0,0,0
100.59,0.27439,1.9927,0.02252,0,0,0,0
102.59,0.28447,2.007,0.023239,0,0,0,0
104.59,0.29531,2.021,0.023882,0,0,0,0
106.59,0.30617,2.0337,0.02472,0,0,0,0
108.59,0.31629,2.0467,0.025345,0,0,0,0
110.59,0.32726,2.0596,0.026052,0,0,0,0
112.59,0.338,2.073,0.026732,0,0,0,0
114.59,0.34855,2.0854,0.027549,0,0,0,0
116.59,0.35972,2.0973,0.028169,0,0,0,0
118.59,0.37053,2.109,0.028855,0,0,0,0
120.59,0.38112,2.122,0.029637,0,0,0,0
122.59,0.3925,2.133,0.030322,0,0,0,0
124.59,0.40321,2.1446,0.031135,0,0,0,0
126.59,0.41403,2.1557,0.031656,0,0,0,0
128.59,0.42556,2.1669,0.032468,0,0,0,0
130.59,0.43632,2.1777,0.033086,0,0,0,0
132.59,0.44767,2.1877,0.033963,0,0,0,0
134.59,0.45849,2.199,0.034449,0,0,0,0
136.59,0.46918,2.209,0.035292,0,0,0,0
138.59,0.48071,2.2197,0.03581,0,0,0,0
140.59,0.49176,2.2293,0.03662,0,0,0,0
142.59,0.50264,2.239,0.0373,0,0,0,0
144.59,0.5142,2.2487,0.037881,0,0,0,0
146.59,0.52501,2.2583,0.038753,0,0,0,0
148.59,0.53632,2.2673,0.039497,0,0,0,0
150.59,0.54766,2.2766,0.040077,0,0,0,0
152.59,0.55866,2.286,0.040754,0,0,0,0
154.59,0.57001,2.295,0.041366,0,0,0,0
156.59,0.58141,2.304,0.042171,0,0,0,0
158.59,0.59249,2.3123,0.042911,0,0,0,0
160.59,0.60429,2.3213,0.04349,0,0,0,0
162.59,0.61548,2.33,0.044197,0,0,0,0
164.59,0.62659,2.338,0.044807,0,0,0,0
166.59,0.63849,2.3463,0.045641,0,0,0,0
168.59,0.64953,2.355,0.046282,0,0,0,0
170.59,0.6608,2.3627,0.047244,0,0,0,0
172.59,0.67284,2.3706,0.047915,0,0,0,0
174.59,0.68374,2.3787,0.048588,0,0,0,0
176.59,0.69548,2.3863,0.049323,0,0,0,0
178.59,0.70704,2.394,0.050218,0,0,0,0
180.59,0.71824,2.4017,0.050952,0,0,0,0
182.59,0.73009,2.4087,0.05159,0,0,0,0
184.59,0.74125,2.416,0.05245,0,0,0,0
186.59,0.75252,2.423,0.053023,0,0,0,0
188.59,0.76457,2.4303,0.053946,0,0,0,0
190.59,0.77549,2.4377,0.054773,0,0,0,0
192.59,0.78714,2.4447,0.055408,0,0,0,0
194.59,0.79888,2.4513,0.056424,0,0,0,0
196.59,0.81003,2.4583,0.05709,0,0,0,0
198.59,0.82198,2.465,0.057883,0,0,0,0
200.59,0.8336,2.4717,0.058643,0,0,0,0
202.59,0.84477,2.4783,0.059529,0,0,0,0
204.59,0.85675,2.4846,0.060478,0,0,0,0
206.59,0.86818,2.4913,0.061172,0,0,0,0
208.59,0.87963,2.4973,0.062151,0,0,0,0
210.59,0.89155,2.504,0.062845,0,0,0,0
212.59,0.90284,2.5097,0.063728,0,0,0,0
214.59,0.91483,2.516,0.064609,0,0,0,0
216.59,0.92639,2.522,0.065615,0,0,0,0
218.59,0.93771,2.5283,0.066495,0,0,0,0
220.59,0.94942,2.5343,0.067155,0,0,0,0
222.59,0.96083,2.54,0.068033,0,0,0,0
224.59,0.97237,2.5453,0.069005,0,0,0,0
226.59,0.98445,2.551,0.069851,0,0,0,0
228.59,0.99542,2.5567,0.071008,0,0,0,0
230.59,1.0072,2.5627,0.071665,0,0,0,0
232.59,1.0189,2.5683,0.072665,0,0,0,0
234.59,1.0315,2.5733,0.073539,0,0,0,0
236.59,1.0428,2.579,0.07463,0,0,0,0
238.59,1.0541,2.584,0.075626,0,0,0,0
240.59,1.066,2.5893,0.076683,0,0,0,0
242.59,1.0782,2.5943,0.077553,0,0,0,0
244.59,1.0895,2.5993,0.078392,0,0,0,0
246.59,1.1017,2.6047,0.07951,0,0,0,0
248.59,1.1137,2.6096,0.080625,0,0,0,0
250.59,1.1248,2.615,0.081708,0,0,0,0
252.59,1.1372,2.619,0.082852,0,0,0,0
254.59,1.1488,2.6247,0.08381,0,0,0,0
256.59,1.1604,2.6286,0.084859,0,0,0,0
258.59,1.1726,2.6333,0.086,0,0,0,0
260.59,1.184,2.6377,0.087262,0,0,0,0
262.59,1.1958,2.642,0.088492,0,0,0,0
264.59,1.2079,2.6467,0.089505,0,0,0,0
266.59,1.2192,2.651,0.09061,0,0,0,0
268.59,1.2313,2.6557,0.091744,0,0,0,0
270.59,1.243,2.6594,0.092998,0,0,0,0
272.59,1.2546,2.6637,0.09416,0,0,0,0
274.59,1.2669,2.6676,0.095474,0,0,0,0
276.59,1.2785,2.672,0.096694,0,0,0,0
278.59,1.2904,2.6757,0.097881,0,0,0,0
280.59,1.3028,2.6793,0.099159,0,0,0,0
282.59,1.3143,2.6837,0.10044,0,0,0,0
284.59,1.3267,2.6863,0.10183,0,0,0,0
286.59,1.339,2.691,0.10322,0,0,0,0
288.59,1.3506,2.694,0.10462,0,0,0,0
290.59,1.363,2.6977,0.10595,0,0,0,0
292.59,1.3748,2.7013,0.10733,0,0,0,0
294.59,1.3873,2.7047,0.10887,0,0,0,0
296.59,1.3997,2.7073,0.1105,0,0,0,0
298.59,1.4114,2.711,0.11209,0,0,0,0
300.59,1.4238,2.714,0.11338,0,0,0,0
302.59,1.4357,2.7173,0.11496,0,0,0,0
304.59,1.4477,2.72,0.11661,0,0,0,0
306.59,1.4602,2.723,0.11843,0,0,0,0
308.59,1.472,2.7257,0.11992,0,0,0,0
310.59,1.4843,2.7287,0.12173,0,0,0,0
312.59,1.4967,2.731,0.12355,0,0,0,0
314.59,1.5084,2.7337,0.12538,0,0,0,0
316.59,1.5214,2.7363,0.12737,0,0,0,0
318.59,1.5336,2.7387,0.12934,0,0,0,0
320.59,1.5458,2.7407,0.13147,0,0,0,0
322.59,1.5587,2.743,0.13347,0,0,0,0
324.59,1.5706,2.745,0.13549,0,0,0,0
326.59,1.5834,2.7467,0.13783,0,0,0,0
328.59,1.5959,2.7487,0.1402,0,0,0,0
330.59,1.6081,2.7503,0.14247,0,0,0,0
332.59,1.6211,2.752,0.14477,0,0,0,0
334.59,1.6331,2.7537,0.14735,0,0,0,0
336.59,1.6458,2.7547,0.14978,0,0,0,0
338.59,1.6585,2.756,0.15253,0,0,0,0
340.59,1.671,2.757,0.15549,0,0,0,0
342.59,1.6839,2.7577,0.15822,0,0,0,0
344.59,1.6966,2.7587,0.16128,0,0,0,0
346.59,1.7093,2.759,0.1645,0,0,0,0
348.59,1.7222,2.7597,0.16777,0,0,0,0
350.59,1.735,2.759,0.17143,0,0,0,0
352.59,1.7485,2.759,0.17512,0,0,0,0
354.59,1.7612,2.7587,0.17884,0,0,0,0
356.59,1.7742,2.758,0.18315,0,0,0,0
358.59,1.7877,2.757,0.18742,0,0,0,0
360.59,1.8005,2.7557,0.19195,0,0,0,0
362.59,1.8141,2.754,0.19662,0,0,0,0
364.59,1.8272,2.7517,0.20168,0,0,0,0
366.59,1.8406,2.749,0.20674,0,0,0,0
368.59,1.8543,2.7457,0.21211,0,0,0,0
370.59,1.8673,2.742,0.21755,0,0,0,0
372.59,1.8813,2.7376,0.22339,0,0,0,0
374.59,1.8942,2.7327,0.22955,0,0,0,0
376.59,1.9089,2.7267,0.23588,0,0,0,0
378.59,1.9221,2.72,0.24238,0,0,0,0
380.59,1.9357,2.712,0.24937,0,0,0,0
382.59,1.9498,2.7037,0.25612,0,0,0,0
384.59,1.9636,2.694,0.26335,0,0,0,0
386.59,1.9778,2.6827,0.2709,0,0,0,0
388.59,1.9923,2.6714,0.27833,0,0,0,0
390.59,2.006,2.6573,0.2859,0,0,0,0
392.59,2.0212,2.643,0.29381,0,0,0,0
394.59,2.0353,2.6267,0.30204,0,0,0,0
396.59,2.0503,2.609,0.31017,0,0,0,0
398.59,2.0656,2.5893,0.3186,0,0,0,0
400.59,2.0802,2.5687,0.32718,0,0,0,0
402.59,2.0959,2.5457,0.33608,0,0,0,0
404.59,2.1109,2.52,0.34511,0,0,0,0
406.59,2.1268,2.4926,0.35453,0,0,0,0
408.59,2.1424,2.4609,0.36418,0,0,0,0
410.59,2.159,2.4259,0.3743,0,0,0,0
412.09,2.1715,2.3953,0.38247,0,0,0,0