File: polyN_optimization/results_exp/AA6014-T4/NT6_45_2.csv
Time[s],Displacement[mm],Force[kN],AxStrain_1,AxStrain_2,Thickness[mm],OuterWidth[mm],InnerWidth[mm]
0.63,0,-0.0050833,0,0,1.1187,20,10
2.63,0.001696,0.05771,0.00012399,0,0,0,0
4.63,0.002675,0.139,1.7e-05,0,0,0,0
6.63,0.003925,0.21057,0.00018298,0,0,0,0
8.63,0.004799,0.25872,3.8999e-05,0,0,0,0
10.63,0.005763,0.31214,2.5e-05,0,0,0,0
12.63,0.007584,0.36915,0.00010399,0,0,0,0
14.63,0.008382,0.42857,0.00014399,0,0,0,0
16.63,0.009414,0.49057,0.00015399,0,0,0,0
18.63,0.010454,0.553,0.00014799,0,0,0,0
20.63,0.011623,0.61543,0.00022797,0,0,0,0
22.63,0.013509,0.67985,0.00021798,0,0,0,0
24.63,0.015551,0.74386,0.00047689,0,0,0,0
26.63,0.016927,0.80815,0.00034194,0,0,0,0
28.63,0.01737,0.87014,0.00040592,0,0,0,0
30.63,0.019237,0.93343,0.00058083,0,0,0,0
32.63,0.020852,0.99557,0.00046689,0,0,0,0
34.63,0.022668,1.0589,0.00064779,0,0,0,0
36.63,0.024665,1.1197,0.00058783,0,0,0,0
38.63,0.026445,1.1799,0.00080168,0,0,0,0
40.63,0.028056,1.2391,0.00087562,0,0,0,0
42.63,0.030668,1.2949,0.00086263,0,0,0,0
44.63,0.033952,1.3469,0.0014559,0,0,0,0
46.63,0.038537,1.3871,0.0024041,0,0,0,0
48.63,0.044799,1.4227,0.0035856,0,0,0,0
50.63,0.052131,1.4543,0.0043416,0,0,0,0
52.63,0.059983,1.484,0.0051636,0,0,0,0
54.63,0.067517,1.511,0.0064521,0,0,0,0
56.63,0.076393,1.5357,0.0079622,0,0,0,0
58.63,0.084883,1.5604,0.0086049,0,0,0,0
60.63,0.09333,1.5823,0.0090836,0,0,0,0
62.63,0.10241,1.6046,0.0098681,0,0,0,0
64.63,0.11154,1.625,0.011011,0,0,0,0
66.63,0.12029,1.6454,0.012316,0,0,0,0
68.63,0.13006,1.6646,0.013158,0,0,0,0
70.63,0.14034,1.6836,0.013767,0,0,0,0
72.63,0.14919,1.702,0.014287,0,0,0,0
74.63,0.1592,1.7197,0.015193,0,0,0,0
76.63,0.1696,1.7374,0.016551,0,0,0,0
78.63,0.17891,1.754,0.017377,0,0,0,0
80.63,0.18901,1.7703,0.017849,0,0,0,0
82.63,0.20005,1.7864,0.018235,0,0,0,0
84.63,0.20955,1.8024,0.01948,0,0,0,0
86.63,0.22076,1.818,0.020445,0,0,0,0
88.63,0.23107,1.833,0.021438,0,0,0,0
90.63,0.24103,1.848,0.022065,0,0,0,0
92.63,0.25217,1.8627,0.022722,0,0,0,0
94.63,0.26262,1.8777,0.023551,0,0,0,0
96.63,0.27314,1.891,0.024493,0,0,0,0
98.63,0.28431,1.905,0.025314,0,0,0,0
100.63,0.2946,1.9187,0.025982,0,0,0,0
102.63,0.30531,1.9317,0.026884,0,0,0,0
104.63,0.31656,1.9443,0.027783,0,0,0,0
106.63,0.32667,1.9573,0.028517,0,0,0,0
108.63,0.33772,1.9697,0.029205,0,0,0,0
110.63,0.34866,1.982,0.030096,0,0,0,0
112.63,0.3591,1.994,0.030978,0,0,0,0
114.63,0.37069,2.006,0.031788,0,0,0,0
116.63,0.38148,2.0176,0.032537,0,0,0,0
118.63,0.39211,2.029,0.033284,0,0,0,0
120.63,0.4037,2.0407,0.034161,0,0,0,0
122.63,0.41453,2.0513,0.035069,0,0,0,0
124.63,0.42547,2.0627,0.035749,0,0,0,0
126.63,0.43716,2.0737,0.036591,0,0,0,0
128.63,0.44776,2.084,0.037239,0,0,0,0
130.63,0.4593,2.0947,0.038435,0,0,0,0
132.63,0.47065,2.1043,0.039113,0,0,0,0
134.63,0.48164,2.1153,0.039726,0,0,0,0
136.63,0.49322,2.1247,0.040661,0,0,0,0
138.63,0.50475,2.135,0.041661,0,0,0,0
140.63,0.51545,2.1443,0.042594,0,0,0,0
142.63,0.52748,2.154,0.043173,0,0,0,0
144.63,0.53884,2.163,0.044073,0,0,0,0
146.63,0.55026,2.1727,0.044877,0,0,0,0
148.63,0.56212,2.1817,0.045936,0,0,0,0
150.63,0.57317,2.1907,0.046769,0,0,0,0
152.63,0.58509,2.1993,0.047634,0,0,0,0
154.63,0.5967,2.208,0.048339,0,0,0,0
156.63,0.60811,2.217,0.049234,0,0,0,0
158.63,0.62019,2.225,0.05032,0,0,0,0
160.63,0.63152,2.2337,0.051119,0,0,0,0
162.63,0.64314,2.242,0.051979,0,0,0,0
164.63,0.65554,2.25,0.052554,0,0,0,0
166.63,0.6668,2.258,0.053445,0,0,0,0
168.63,0.67864,2.2653,0.054527,0,0,0,0
170.63,0.69033,2.2736,0.055576,0,0,0,0
172.63,0.70179,2.281,0.05637,0,0,0,0
174.63,0.71379,2.2883,0.057036,0,0,0,0
176.63,0.72552,2.2957,0.057955,0,0,0,0
178.63,0.73681,2.303,0.059126,0,0,0,0
180.63,0.74914,2.3103,0.060046,0,0,0,0
182.63,0.76045,2.3173,0.060867,0,0,0,0
184.63,0.77205,2.324,0.061562,0,0,0,0
186.63,0.78434,2.3313,0.062288,0,0,0,0
188.63,0.79552,2.338,0.063518,0,0,0,0
190.63,0.80739,2.3447,0.064589,0,0,0,0
192.63,0.81923,2.3513,0.06547,0,0,0,0
194.63,0.83054,2.3576,0.066194,0,0,0,0
196.63,0.84312,2.3643,0.067072,0,0,0,0
198.63,0.85452,2.3707,0.067951,0,0,0,0
200.63,0.86629,2.3767,0.069049,0,0,0,0
202.63,0.87861,2.3827,0.070177,0,0,0,0
204.63,0.89009,2.3893,0.071084,0,0,0,0
206.63,0.90235,2.3953,0.071928,0,0,0,0
208.63,0.91438,2.401,0.072834,0,0,0,0
210.63,0.92592,2.407,0.073802,0,0,0,0
212.63,0.93834,2.4127,0.075144,0,0,0,0
214.63,0.94993,2.4187,0.076138,0,0,0,0
216.63,0.96189,2.4243,0.076979,0,0,0,0
218.63,0.97391,2.4297,0.077879,0,0,0,0
220.63,0.98579,2.4357,0.07906,0,0,0,0
222.63,0.99804,2.4413,0.080083,0,0,0,0
224.63,1.0104,2.4463,0.081353,0,0,0,0
226.63,1.0216,2.4513,0.082467,0,0,0,0
228.63,1.0341,2.457,0.083271,0,0,0,0
230.63,1.046,2.4623,0.08429,0,0,0,0
232.63,1.058,2.467,0.085711,0,0,0,0
234.63,1.0705,2.472,0.086695,0,0,0,0
236.63,1.0819,2.4773,0.087957,0,0,0,0
238.63,1.0945,2.482,0.089095,0,0,0,0
240.63,1.1065,2.487,0.090016,0,0,0,0
242.63,1.1181,2.492,0.091274,0,0,0,0
244.63,1.131,2.496,0.092377,0,0,0,0
246.63,1.1428,2.501,0.093448,0,0,0,0
248.63,1.1546,2.5057,0.094792,0,0,0,0
250.63,1.167,2.51,0.096014,0,0,0,0
252.63,1.1786,2.514,0.097203,0,0,0,0
254.63,1.191,2.519,0.098361,0,0,0,0
256.63,1.2028,2.523,0.099486,0,0,0,0
258.63,1.2147,2.527,0.10097,0,0,0,0
260.63,1.2274,2.531,0.10231,0,0,0,0
262.63,1.2388,2.535,0.10337,0,0,0,0
264.63,1.2508,2.54,0.10464,0,0,0,0
266.63,1.2629,2.5433,0.10585,0,0,0,0
268.63,1.2748,2.547,0.10736,0,0,0,0
270.63,1.2875,2.551,0.10869,0,0,0,0
272.63,1.2993,2.555,0.1101,0,0,0,0
274.63,1.311,2.559,0.11115,0,0,0,0
276.63,1.3239,2.5626,0.11275,0,0,0,0
278.63,1.3355,2.566,0.11427,0,0,0,0
280.63,1.3476,2.5696,0.11556,0,0,0,0
282.63,1.3601,2.573,0.11688,0,0,0,0
284.63,1.372,2.5763,0.11846,0,0,0,0
286.63,1.3846,2.58,0.11998,0,0,0,0
288.63,1.3965,2.583,0.12129,0,0,0,0
290.63,1.4085,2.5867,0.12263,0,0,0,0
292.63,1.4212,2.59,0.12438,0,0,0,0
294.63,1.4331,2.5927,0.1261,0,0,0,0
296.63,1.4454,2.596,0.12767,0,0,0,0
298.63,1.4579,2.599,0.12902,0,0,0,0
300.63,1.4693,2.6017,0.13059,0,0,0,0
302.63,1.482,2.6047,0.13244,0,0,0,0
304.63,1.494,2.607,0.13418,0,0,0,0
306.63,1.5062,2.61,0.13561,0,0,0,0
308.63,1.5188,2.6127,0.13734,0,0,0,0
310.63,1.5302,2.6153,0.13945,0,0,0,0
312.63,1.5434,2.6177,0.14126,0,0,0,0
314.63,1.5554,2.62,0.14295,0,0,0,0
316.63,1.5674,2.6227,0.14481,0,0,0,0
318.63,1.5805,2.625,0.14679,0,0,0,0
320.63,1.5924,2.6273,0.14887,0,0,0,0
322.63,1.6049,2.6293,0.15081,0,0,0,0
324.63,1.6175,2.6317,0.15274,0,0,0,0
326.63,1.6296,2.634,0.15499,0,0,0,0
328.63,1.6427,2.6357,0.15706,0,0,0,0
330.63,1.6546,2.6377,0.15906,0,0,0,0
332.63,1.667,2.6393,0.16132,0,0,0,0
334.63,1.6798,2.6413,0.16349,0,0,0,0
336.63,1.6919,2.6427,0.16614,0,0,0,0
338.63,1.7048,2.6443,0.16847,0,0,0,0
340.63,1.7172,2.6457,0.17091,0,0,0,0
342.63,1.7296,2.647,0.17348,0,0,0,0
344.63,1.7426,2.6487,0.17619,0,0,0,0
346.63,1.755,2.6497,0.17889,0,0,0,0
348.63,1.7679,2.651,0.18156,0,0,0,0
350.63,1.7806,2.6523,0.1843,0,0,0,0
352.63,1.793,2.653,0.18714,0,0,0,0
354.63,1.8063,2.6533,0.1902,0,0,0,0
356.63,1.8188,2.654,0.19339,0,0,0,0
358.63,1.8318,2.655,0.19659,0,0,0,0
360.63,1.845,2.6557,0.19962,0,0,0,0
362.63,1.8575,2.6553,0.20319,0,0,0,0
364.63,1.8711,2.6553,0.20683,0,0,0,0
366.63,1.8836,2.6553,0.21059,0,0,0,0
368.62,1.8966,2.6557,0.21445,0,0,0,0
370.63,1.9097,2.655,0.21832,0,0,0,0
372.63,1.9225,2.654,0.22264,0,0,0,0
374.63,1.936,2.6537,0.2269,0,0,0,0
376.63,1.9488,2.6527,0.23136,0,0,0,0
378.63,1.962,2.651,0.23612,0,0,0,0
380.63,1.9754,2.6493,0.24094,0,0,0,0
382.63,1.9882,2.648,0.24602,0,0,0,0
384.63,2.002,2.6453,0.25128,0,0,0,0
386.63,2.0151,2.6427,0.25686,0,0,0,0
388.63,2.0284,2.64,0.26245,0,0,0,0
390.62,2.0422,2.636,0.26805,0,0,0,0
392.63,2.0552,2.632,0.27422,0,0,0,0
394.63,2.0692,2.6274,0.28061,0,0,0,0
396.63,2.0829,2.622,0.28699,0,0,0,0
398.63,2.0966,2.6157,0.29358,0,0,0,0
400.62,2.1107,2.609,0.30052,0,0,0,0
402.63,2.1243,2.6007,0.30719,0,0,0,0
404.62,2.1386,2.5913,0.31444,0,0,0,0
406.62,2.1525,2.5807,0.3219,0,0,0,0
408.62,2.1669,2.5693,0.32911,0,0,0,0
410.62,2.1813,2.5563,0.33663,0,0,0,0
412.62,2.1954,2.5417,0.34441,0,0,0,0
414.62,2.2106,2.525,0.35229,0,0,0,0
416.63,2.2246,2.5067,0.36039,0,0,0,0
418.62,2.2398,2.4871,0.36835,0,0,0,0
420.62,2.2551,2.4626,0.37667,0,0,0,0
422.62,2.2706,2.436,0.38572,0,0,0,0
423.62,2.2789,2.4187,0.39019,0,0,0,0