File: polyN_optimization/results_exp/AA6014-T4/NT6_90_3.csv
Time[s],Displacement[mm],Force[kN],AxStrain_1,AxStrain_2,Thickness[mm],OuterWidth[mm],InnerWidth[mm]
0.59,0,-0.0052326,0,0,1.1185,20,10.09
2.59,0.001638,0.062714,7.4997e-05,0,0,0,0
4.59,0.002782,0.13972,9.0996e-05,0,0,0,0
6.59,0.004141,0.21357,0.00021298,0,0,0,0
8.59,0.004722,0.26,0.00025197,0,0,0,0
10.59,0.006156,0.31715,0.00029996,0,0,0,0
12.59,0.0077,0.37385,0.00029996,0,0,0,0
14.59,0.008938,0.43414,0.00025197,0,0,0,0
16.59,0.009753,0.49443,0.00029896,0,0,0,0
18.59,0.010807,0.55629,0.00030595,0,0,0,0
20.59,0.012167,0.62,0.00047988,0,0,0,0
22.59,0.014248,0.68086,0.00039992,0,0,0,0
24.59,0.016105,0.74585,0.00069776,0,0,0,0
26.59,0.017354,0.807,0.00049388,0,0,0,0
28.59,0.018129,0.87186,0.00066778,0,0,0,0
30.59,0.019479,0.93314,0.00075172,0,0,0,0
32.59,0.021517,0.99514,0.00084564,0,0,0,0
34.59,0.023669,1.0559,0.00082566,0,0,0,0
36.59,0.02525,1.116,0.00083265,0,0,0,0
38.59,0.026724,1.176,0.0010974,0,0,0,0
40.59,0.028231,1.2329,0.0010035,0,0,0,0
42.59,0.030665,1.2919,0.0010105,0,0,0,0
44.59,0.033395,1.345,0.0012612,0,0,0,0
46.59,0.036974,1.3963,0.0020359,0,0,0,0
48.59,0.042325,1.4329,0.0030105,0,0,0,0
50.59,0.049117,1.4664,0.0036902,0,0,0,0
52.59,0.056735,1.4973,0.004903,0,0,0,0
54.59,0.064117,1.5259,0.0059354,0,0,0,0
56.59,0.072326,1.551,0.0072526,0,0,0,0
58.59,0.081219,1.5746,0.0083014,0,0,0,0
60.59,0.089538,1.5987,0.0086683,0,0,0,0
62.59,0.098291,1.62,0.0091005,0,0,0,0
64.59,0.10741,1.6413,0.010035,0,0,0,0
66.59,0.11638,1.6613,0.011516,0,0,0,0
68.59,0.12575,1.6807,0.012597,0,0,0,0
70.59,0.1357,1.6993,0.012876,0,0,0,0
72.59,0.14512,1.7176,0.013473,0,0,0,0
74.59,0.15504,1.735,0.01432,0,0,0,0
76.59,0.16528,1.7526,0.015667,0,0,0,0
78.59,0.17472,1.7697,0.016625,0,0,0,0
80.59,0.18473,1.7857,0.017152,0,0,0,0
82.59,0.19562,1.802,0.017579,0,0,0,0
84.59,0.20554,1.818,0.018301,0,0,0,0
86.59,0.21619,1.8334,0.019371,0,0,0,0
88.59,0.22698,1.8486,0.020404,0,0,0,0
90.59,0.23681,1.863,0.020996,0,0,0,0
92.59,0.24794,1.878,0.021437,0,0,0,0
94.59,0.25862,1.892,0.022169,0,0,0,0
96.59,0.26869,1.9067,0.023138,0,0,0,0
98.59,0.28008,1.9193,0.02401,0,0,0,0
100.59,0.29026,1.9333,0.024564,0,0,0,0
102.59,0.30056,1.9464,0.025375,0,0,0,0
104.59,0.3119,1.9594,0.026105,0,0,0,0
106.59,0.32236,1.972,0.027008,0,0,0,0
108.59,0.3329,1.9843,0.027593,0,0,0,0
110.59,0.34441,1.9963,0.028288,0,0,0,0
112.59,0.35454,2.008,0.029179,0,0,0,0
114.59,0.36571,2.02,0.029834,0,0,0,0
116.59,0.37698,2.0317,0.030551,0,0,0,0
118.59,0.38752,2.043,0.031169,0,0,0,0
120.59,0.39891,2.054,0.03221,0,0,0,0
122.59,0.40997,2.0654,0.032698,0,0,0,0
124.59,0.42055,2.0756,0.033575,0,0,0,0
126.59,0.43225,2.0864,0.034224,0,0,0,0
128.59,0.44327,2.0967,0.035002,0,0,0,0
130.59,0.4544,2.1067,0.035812,0,0,0,0
132.59,0.46612,2.1173,0.036492,0,0,0,0
134.59,0.4768,2.1274,0.037171,0,0,0,0
136.59,0.4881,2.137,0.037883,0,0,0,0
138.59,0.49997,2.1457,0.038691,0,0,0,0
140.59,0.51064,2.1557,0.039499,0,0,0,0
142.59,0.52252,2.1643,0.040079,0,0,0,0
144.59,0.53376,2.1733,0.04066,0,0,0,0
146.59,0.54486,2.182,0.041433,0,0,0,0
148.59,0.55671,2.191,0.042367,0,0,0,0
150.59,0.56797,2.199,0.043171,0,0,0,0
152.59,0.57918,2.208,0.043878,0,0,0,0
154.59,0.59124,2.2163,0.044328,0,0,0,0
156.59,0.60213,2.2244,0.045066,0,0,0,0
158.59,0.61416,2.2324,0.046189,0,0,0,0
160.59,0.62585,2.2406,0.047054,0,0,0,0
162.59,0.63696,2.2483,0.047374,0,0,0,0
164.59,0.64902,2.2563,0.04811,0,0,0,0
166.59,0.66049,2.264,0.04907,0,0,0,0
168.59,0.67173,2.2713,0.0499,0,0,0,0
170.59,0.68403,2.279,0.050604,0,0,0,0
172.59,0.69483,2.287,0.051274,0,0,0,0
174.59,0.70658,2.294,0.051943,0,0,0,0
176.59,0.71874,2.301,0.052676,0,0,0,0
178.59,0.72959,2.3083,0.053694,0,0,0,0
180.59,0.74168,2.315,0.05449,0,0,0,0
182.59,0.75313,2.3223,0.055221,0,0,0,0
184.59,0.76442,2.3287,0.056015,0,0,0,0
186.59,0.77664,2.3357,0.056808,0,0,0,0
188.59,0.78793,2.3423,0.057665,0,0,0,0
190.59,0.79946,2.3493,0.058425,0,0,0,0
192.59,0.81155,2.3553,0.059312,0,0,0,0
194.59,0.82262,2.3617,0.060134,0,0,0,0
196.59,0.83427,2.3683,0.060924,0,0,0,0
198.59,0.84606,2.375,0.06184,0,0,0,0
200.59,0.8574,2.381,0.062533,0,0,0,0
202.59,0.86958,2.387,0.063354,0,0,0,0
204.59,0.88108,2.3927,0.064487,0,0,0,0
206.59,0.89259,2.3987,0.065337,0,0,0,0
208.59,0.90492,2.4053,0.066092,0,0,0,0
210.59,0.91622,2.4107,0.067097,0,0,0,0
212.59,0.9284,2.4167,0.068007,0,0,0,0
214.59,0.94034,2.4223,0.068792,0,0,0,0
216.59,0.95149,2.428,0.069763,0,0,0,0
218.59,0.96377,2.4337,0.070451,0,0,0,0
220.59,0.97556,2.4387,0.07142,0,0,0,0
222.59,0.98692,2.4447,0.072389,0,0,0,0
224.59,0.99928,2.4503,0.073326,0,0,0,0
226.59,1.0108,2.455,0.074323,0,0,0,0
228.59,1.0224,2.4603,0.075165,0,0,0,0
230.59,1.0347,2.4657,0.076286,0,0,0,0
232.59,1.0456,2.471,0.07725,0,0,0,0
234.59,1.0581,2.476,0.07812,0,0,0,0
236.59,1.0699,2.481,0.079206,0,0,0,0
238.59,1.0811,2.4857,0.079981,0,0,0,0
240.59,1.0936,2.491,0.08119,0,0,0,0
242.59,1.1049,2.496,0.082334,0,0,0,0
244.59,1.1167,2.5,0.0832,0,0,0,0
246.59,1.1291,2.505,0.084188,0,0,0,0
248.59,1.1403,2.51,0.08536,0,0,0,0
250.59,1.1525,2.514,0.086407,0,0,0,0
252.59,1.1642,2.5183,0.087485,0,0,0,0
254.59,1.1756,2.523,0.088469,0,0,0,0
256.58,1.1879,2.5273,0.089728,0,0,0,0
258.58,1.199,2.5317,0.090711,0,0,0,0
260.59,1.2109,2.536,0.091936,0,0,0,0
262.59,1.2231,2.54,0.092978,0,0,0,0
264.58,1.2343,2.544,0.094048,0,0,0,0
266.59,1.2462,2.5484,0.095454,0,0,0,0
268.59,1.2584,2.5523,0.096704,0,0,0,0
270.58,1.2697,2.556,0.097892,0,0,0,0
272.59,1.2821,2.56,0.098896,0,0,0,0
274.58,1.2938,2.564,0.1002,0,0,0,0
276.59,1.3051,2.5676,0.10142,0,0,0,0
278.58,1.3178,2.5717,0.10299,0,0,0,0
280.59,1.3292,2.575,0.10421,0,0,0,0
282.58,1.3414,2.579,0.10542,0,0,0,0
284.58,1.3536,2.5824,0.1069,0,0,0,0
286.58,1.3654,2.5856,0.10831,0,0,0,0
288.58,1.3782,2.5893,0.10988,0,0,0,0
290.58,1.3897,2.5927,0.11105,0,0,0,0
292.58,1.4017,2.596,0.11267,0,0,0,0
294.59,1.4146,2.5993,0.11417,0,0,0,0
296.58,1.4262,2.6023,0.11555,0,0,0,0
298.58,1.4389,2.605,0.1171,0,0,0,0
300.58,1.4506,2.6083,0.11868,0,0,0,0
302.59,1.4627,2.6117,0.12035,0,0,0,0
304.58,1.4756,2.6147,0.12187,0,0,0,0
306.58,1.4874,2.6173,0.12347,0,0,0,0
308.59,1.4994,2.62,0.12514,0,0,0,0
310.58,1.5121,2.6227,0.12685,0,0,0,0
312.58,1.5242,2.6257,0.12848,0,0,0,0
314.58,1.5366,2.6283,0.13037,0,0,0,0
316.58,1.5487,2.6307,0.13225,0,0,0,0
318.58,1.561,2.6333,0.13413,0,0,0,0
320.58,1.5739,2.6354,0.13607,0,0,0,0
322.58,1.586,2.6377,0.13785,0,0,0,0
324.58,1.5987,2.64,0.13978,0,0,0,0
326.58,1.6111,2.6423,0.14194,0,0,0,0
328.58,1.623,2.6447,0.14406,0,0,0,0
330.58,1.6364,2.646,0.1463,0,0,0,0
332.58,1.6483,2.6477,0.14827,0,0,0,0
334.58,1.6606,2.6493,0.15044,0,0,0,0
336.58,1.6736,2.6517,0.15275,0,0,0,0
338.58,1.6858,2.653,0.15535,0,0,0,0
340.58,1.6988,2.6547,0.15776,0,0,0,0
342.58,1.7109,2.656,0.16026,0,0,0,0
344.58,1.7237,2.6577,0.16297,0,0,0,0
346.58,1.7367,2.6583,0.16573,0,0,0,0
348.58,1.7491,2.6593,0.16854,0,0,0,0
350.58,1.7621,2.66,0.17168,0,0,0,0
352.58,1.7747,2.6617,0.17462,0,0,0,0
354.58,1.7876,2.662,0.17794,0,0,0,0
356.58,1.8011,2.662,0.18122,0,0,0,0
358.58,1.8134,2.662,0.18472,0,0,0,0
360.58,1.8266,2.6623,0.18818,0,0,0,0
362.58,1.8404,2.6624,0.19216,0,0,0,0
364.58,1.8528,2.662,0.19629,0,0,0,0
366.58,1.8661,2.6617,0.20015,0,0,0,0
368.58,1.8787,2.661,0.20424,0,0,0,0
370.58,1.8921,2.6597,0.20894,0,0,0,0
372.58,1.9057,2.6583,0.21364,0,0,0,0
374.58,1.9182,2.656,0.2184,0,0,0,0
376.58,1.9319,2.654,0.2233,0,0,0,0
378.58,1.9451,2.6517,0.22853,0,0,0,0
380.58,1.9585,2.648,0.23418,0,0,0,0
382.58,1.9722,2.644,0.24004,0,0,0,0
384.58,1.985,2.6403,0.24565,0,0,0,0
386.58,1.999,2.6357,0.25198,0,0,0,0
388.58,2.0125,2.63,0.25823,0,0,0,0
390.58,2.0264,2.624,0.26453,0,0,0,0
392.58,2.0401,2.617,0.27143,0,0,0,0
394.58,2.0536,2.6094,0.2781,0,0,0,0
396.58,2.0682,2.601,0.28524,0,0,0,0
398.58,2.0817,2.5917,0.29237,0,0,0,0
400.58,2.0962,2.5807,0.29988,0,0,0,0
402.58,2.1103,2.5694,0.30749,0,0,0,0
404.58,2.1247,2.5563,0.31526,0,0,0,0
406.58,2.1395,2.543,0.32297,0,0,0,0
408.58,2.1532,2.528,0.33113,0,0,0,0
410.58,2.1685,2.513,0.33891,0,0,0,0
412.58,2.183,2.4957,0.34695,0,0,0,0
414.58,2.1978,2.4764,0.35585,0,0,0,0
416.58,2.2128,2.456,0.36427,0,0,0,0
418.58,2.2274,2.434,0.37316,0,0,0,0
420.58,2.2432,2.4107,0.38217,0,0,0,0
422.58,2.2579,2.3836,0.39186,0,0,0,0
424.58,2.2741,2.355,0.40184,0,0,0,0
426.58,2.2901,2.3194,0.41237,0,0,0,0
427.08,2.2942,2.3063,0.41535,0,0,0,0