File: polyN_optimization/results_exp/AA6014-T4/NT6_90_1.csv
Time[s],Displacement[mm],Force[kN],AxStrain_1,AxStrain_2,Thickness[mm],OuterWidth[mm],InnerWidth[mm]
0.64,0,-0.0050318,0,0,1.1161,20,10.071
2.64,0.001458,0.063423,-4e-06,0,0,0,0
4.64,0.002883,0.14385,0.00011099,0,0,0,0
6.64,0.003778,0.20286,5.8998e-05,0,0,0,0
8.64,0.005145,0.25729,0.00021598,0,0,0,0
10.64,0.006348,0.31543,0.00034494,0,0,0,0
12.64,0.007896,0.37115,0.00035794,0,0,0,0
14.64,0.009175,0.43285,0.00036593,0,0,0,0
16.64,0.009954,0.49129,0.00027896,0,0,0,0
18.64,0.011227,0.55386,0.00041991,0,0,0,0
20.64,0.012818,0.61314,0.00049388,0,0,0,0
22.64,0.01499,0.67514,0.00056384,0,0,0,0
24.64,0.016457,0.73586,0.00056384,0,0,0,0
26.64,0.017609,0.79729,0.0006378,0,0,0,0
28.64,0.018529,0.85929,0.00055085,0,0,0,0
30.64,0.020352,0.91886,0.0006378,0,0,0,0
32.64,0.022195,0.98185,0.0007717,0,0,0,0
34.64,0.024186,1.04,0.00098651,0,0,0,0
36.64,0.02564,1.1011,0.00095654,0,0,0,0
38.64,0.027262,1.1581,0.0007787,0,0,0,0
40.64,0.028923,1.2169,0.00093656,0,0,0,0
42.64,0.031264,1.2729,0.0011883,0,0,0,0
44.64,0.033621,1.327,0.0014959,0,0,0,0
46.64,0.036102,1.3797,0.0017175,0,0,0,0
48.64,0.041124,1.4196,0.0024879,0,0,0,0
50.64,0.047785,1.4546,0.003449,0,0,0,0
52.64,0.054272,1.486,0.0045725,0,0,0,0
54.64,0.061647,1.5156,0.0059314,0,0,0,0
56.64,0.069564,1.5417,0.0070491,0,0,0,0
58.64,0.077729,1.567,0.0075623,0,0,0,0
60.64,0.085682,1.5903,0.0082281,0,0,0,0
62.64,0.094783,1.6123,0.0090975,0,0,0,0
64.64,0.10375,1.634,0.010473,0,0,0,0
66.64,0.11247,1.654,0.011666,0,0,0,0
68.64,0.12224,1.6744,0.011964,0,0,0,0
70.64,0.13193,1.693,0.012422,0,0,0,0
72.64,0.14114,1.7117,0.013353,0,0,0,0
74.64,0.15114,1.7297,0.014452,0,0,0,0
76.64,0.16109,1.7473,0.015772,0,0,0,0
78.64,0.17054,1.7643,0.016237,0,0,0,0
80.64,0.18121,1.7804,0.016568,0,0,0,0
82.64,0.19149,1.7973,0.017268,0,0,0,0
84.64,0.20118,1.813,0.018567,0,0,0,0
86.64,0.21199,1.829,0.019305,0,0,0,0
88.64,0.22209,1.8437,0.020007,0,0,0,0
90.64,0.23219,1.8593,0.020716,0,0,0,0
92.64,0.24328,1.8737,0.021499,0,0,0,0
94.64,0.25331,1.8877,0.022156,0,0,0,0
96.64,0.26378,1.9017,0.023108,0,0,0,0
98.64,0.27481,1.9153,0.023891,0,0,0,0
100.64,0.28498,1.929,0.024393,0,0,0,0
102.64,0.29567,1.942,0.02513,0,0,0,0
104.64,0.30664,1.955,0.025935,0,0,0,0
106.64,0.31682,1.9677,0.026795,0,0,0,0
108.64,0.3281,1.9806,0.027327,0,0,0,0
110.64,0.33891,1.9924,0.028085,0,0,0,0
112.64,0.34953,2.0047,0.029051,0,0,0,0
114.64,0.36096,2.0166,0.029834,0,0,0,0
116.64,0.37165,2.0283,0.030453,0,0,0,0
118.64,0.38265,2.0397,0.03094,0,0,0,0
120.64,0.39406,2.0503,0.031884,0,0,0,0
122.64,0.40494,2.062,0.032632,0,0,0,0
124.64,0.41592,2.0723,0.033574,0,0,0,0
126.64,0.42754,2.0833,0.03432,0,0,0,0
128.64,0.43831,2.0937,0.034904,0,0,0,0
130.63,0.44967,2.1037,0.035779,0,0,0,0
132.64,0.46107,2.1143,0.036459,0,0,0,0
134.63,0.47183,2.124,0.037171,0,0,0,0
136.63,0.48364,2.1337,0.03785,0,0,0,0
138.64,0.49475,2.143,0.038561,0,0,0,0
140.63,0.5057,2.1527,0.039401,0,0,0,0
142.64,0.51759,2.1617,0.039948,0,0,0,0
144.64,0.5283,2.171,0.040884,0,0,0,0
146.63,0.53978,2.1797,0.04156,0,0,0,0
148.64,0.55153,2.188,0.042333,0,0,0,0
150.64,0.56241,2.197,0.043009,0,0,0,0
152.63,0.57433,2.2057,0.043748,0,0,0,0
154.63,0.58591,2.2137,0.044519,0,0,0,0
156.63,0.59691,2.222,0.045321,0,0,0,0
158.63,0.60928,2.2304,0.046316,0,0,0,0
160.64,0.62031,2.2383,0.047052,0,0,0,0
162.63,0.63216,2.2466,0.047597,0,0,0,0
164.64,0.64399,2.254,0.048461,0,0,0,0
166.64,0.65527,2.262,0.049228,0,0,0,0
168.63,0.66703,2.27,0.050091,0,0,0,0
170.63,0.67883,2.2773,0.050825,0,0,0,0
172.64,0.68978,2.2843,0.051718,0,0,0,0
174.63,0.70182,2.2913,0.05242,0,0,0,0
176.63,0.71311,2.299,0.053121,0,0,0,0
178.63,0.72444,2.3063,0.054106,0,0,0,0
180.64,0.73698,2.313,0.055029,0,0,0,0
182.63,0.74789,2.32,0.055696,0,0,0,0
184.63,0.75939,2.3267,0.056458,0,0,0,0
186.63,0.77142,2.334,0.057409,0,0,0,0
188.63,0.78255,2.34,0.058011,0,0,0,0
190.63,0.79457,2.347,0.058898,0,0,0,0
192.64,0.80645,2.3533,0.059879,0,0,0,0
194.63,0.81785,2.3603,0.060669,0,0,0,0
196.63,0.83014,2.3663,0.061553,0,0,0,0
198.63,0.84177,2.3723,0.062532,0,0,0,0
200.63,0.85344,2.3787,0.063414,0,0,0,0
202.63,0.8654,2.3853,0.064107,0,0,0,0
204.63,0.87688,2.3913,0.064926,0,0,0,0
206.63,0.88917,2.3973,0.066026,0,0,0,0
208.63,0.9009,2.4027,0.066937,0,0,0,0
210.63,0.91256,2.4087,0.067659,0,0,0,0
212.63,0.92492,2.4147,0.068475,0,0,0,0
214.63,0.93662,2.4203,0.069446,0,0,0,0
216.63,0.94768,2.426,0.070417,0,0,0,0
218.63,0.96016,2.4317,0.071449,0,0,0,0
220.63,0.97136,2.4373,0.072229,0,0,0,0
222.63,0.98347,2.4423,0.073228,0,0,0,0
224.63,0.99519,2.4477,0.074321,0,0,0,0
226.63,1.0065,2.453,0.075224,0,0,0,0
228.63,1.0188,2.4583,0.076314,0,0,0,0
230.63,1.0304,2.4637,0.077091,0,0,0,0
232.63,1.0421,2.469,0.078054,0,0,0,0
234.63,1.0545,2.474,0.079233,0,0,0,0
236.63,1.0658,2.4787,0.080257,0,0,0,0
238.63,1.0781,2.484,0.08131,0,0,0,0
240.63,1.0898,2.489,0.082331,0,0,0,0
242.63,1.1015,2.4933,0.08335,0,0,0,0
244.63,1.1136,2.498,0.084246,0,0,0,0
246.63,1.1252,2.503,0.085479,0,0,0,0
248.63,1.1366,2.5073,0.086558,0,0,0,0
250.63,1.149,2.512,0.087513,0,0,0,0
252.63,1.1603,2.516,0.088619,0,0,0,0
254.63,1.1724,2.521,0.089601,0,0,0,0
256.63,1.1842,2.525,0.09089,0,0,0,0
258.63,1.1955,2.529,0.092208,0,0,0,0
260.63,1.2078,2.5333,0.093401,0,0,0,0
262.63,1.2192,2.538,0.094349,0,0,0,0
264.63,1.2311,2.542,0.095601,0,0,0,0
266.63,1.2432,2.5453,0.096851,0,0,0,0
268.63,1.2546,2.5493,0.098039,0,0,0,0
270.63,1.2668,2.5533,0.09965,0,0,0,0
272.63,1.2787,2.5577,0.10071,0,0,0,0
274.63,1.2902,2.5614,0.1019,0,0,0,0
276.63,1.3026,2.565,0.1032,0,0,0,0
278.63,1.3143,2.569,0.10471,0,0,0,0
280.63,1.3263,2.572,0.10595,0,0,0,0
282.63,1.3386,2.576,0.10767,0,0,0,0
284.63,1.3503,2.579,0.10891,0,0,0,0
286.63,1.3627,2.5827,0.11044,0,0,0,0
288.63,1.3749,2.5863,0.11176,0,0,0,0
290.63,1.3868,2.5897,0.11326,0,0,0,0
292.63,1.3996,2.5923,0.1147,0,0,0,0
294.63,1.411,2.596,0.11635,0,0,0,0
296.63,1.4231,2.599,0.11826,0,0,0,0
298.63,1.4357,2.6017,0.11951,0,0,0,0
300.63,1.4476,2.6047,0.12097,0,0,0,0
302.63,1.4597,2.608,0.12258,0,0,0,0
304.63,1.4721,2.6103,0.12436,0,0,0,0
306.63,1.4838,2.6133,0.12602,0,0,0,0
308.63,1.4964,2.616,0.12767,0,0,0,0
310.63,1.5081,2.6187,0.12962,0,0,0,0
312.63,1.5206,2.6213,0.13142,0,0,0,0
314.63,1.5329,2.624,0.1331,0,0,0,0
316.63,1.5453,2.6257,0.13503,0,0,0,0
318.63,1.558,2.6283,0.1372,0,0,0,0
320.63,1.5698,2.6307,0.13907,0,0,0,0
322.63,1.5819,2.6327,0.14106,0,0,0,0
324.63,1.595,2.6347,0.14318,0,0,0,0
326.63,1.6072,2.6367,0.14542,0,0,0,0
328.63,1.6197,2.6387,0.14769,0,0,0,0
330.63,1.6319,2.6407,0.14992,0,0,0,0
332.63,1.6439,2.6427,0.1522,0,0,0,0
334.63,1.6572,2.6443,0.15482,0,0,0,0
336.63,1.6692,2.6457,0.15738,0,0,0,0
338.63,1.6817,2.647,0.1599,0,0,0,0
340.63,1.6949,2.6483,0.16264,0,0,0,0
342.63,1.7069,2.6496,0.16543,0,0,0,0
344.63,1.7203,2.6507,0.16836,0,0,0,0
346.63,1.7325,2.6513,0.17133,0,0,0,0
348.63,1.745,2.6527,0.17447,0,0,0,0
350.63,1.7582,2.653,0.17773,0,0,0,0
352.63,1.7708,2.6533,0.18127,0,0,0,0
354.63,1.7838,2.6537,0.1848,0,0,0,0
356.63,1.7967,2.654,0.18831,0,0,0,0
358.63,1.8095,2.6544,0.19206,0,0,0,0
360.63,1.8231,2.654,0.19619,0,0,0,0
362.63,1.8357,2.6533,0.20035,0,0,0,0
364.63,1.8489,2.653,0.2046,0,0,0,0
366.63,1.8622,2.652,0.20924,0,0,0,0
368.63,1.8748,2.65,0.21418,0,0,0,0
370.63,1.8883,2.6487,0.21913,0,0,0,0
372.63,1.9011,2.6467,0.2244,0,0,0,0
374.63,1.9145,2.6444,0.22967,0,0,0,0
376.63,1.9282,2.641,0.23529,0,0,0,0
378.63,1.9411,2.638,0.24098,0,0,0,0
380.63,1.9553,2.634,0.24712,0,0,0,0
382.63,1.9682,2.6293,0.25324,0,0,0,0
384.63,1.9822,2.6247,0.25977,0,0,0,0
386.63,1.9958,2.6183,0.2661,0,0,0,0
388.63,2.0091,2.6116,0.2729,0,0,0,0
390.63,2.0234,2.604,0.27986,0,0,0,0
392.63,2.037,2.596,0.28695,0,0,0,0
394.63,2.0515,2.5867,0.29423,0,0,0,0
396.63,2.0655,2.5763,0.30152,0,0,0,0
398.63,2.0793,2.565,0.30902,0,0,0,0
400.63,2.0942,2.5523,0.31684,0,0,0,0
402.63,2.1081,2.539,0.3245,0,0,0,0
404.63,2.1234,2.524,0.33258,0,0,0,0
406.63,2.1374,2.5083,0.34055,0,0,0,0
408.63,2.152,2.49,0.34857,0,0,0,0
410.63,2.1674,2.4704,0.35679,0,0,0,0
412.63,2.1818,2.4483,0.36516,0,0,0,0
414.63,2.1978,2.4254,0.37361,0,0,0,0
416.63,2.2127,2.398,0.38232,0,0,0,0
418.63,2.2292,2.3663,0.39158,0,0,0,0
419.13,2.2333,2.3574,0.39383,0,0,0,0