File: polyN_optimization/results_exp/AA6014-T4/NT6_90_2.csv
Time[s],Displacement[mm],Force[kN],AxStrain_1,AxStrain_2,Thickness[mm],OuterWidth[mm],InnerWidth[mm]
0.64,0,-0.0055575,0,0,1.1166,20,10.039
2.64,0.001674,0.058718,0.00014999,0,0,0,0
4.64,0.002841,0.13943,0.00014299,0,0,0,0
6.64,0.003682,0.20014,0.00022997,0,0,0,0
8.64,0.004604,0.24786,0.00022198,0,0,0,0
10.64,0.005794,0.30414,0.00018798,0,0,0,0
12.64,0.007392,0.36114,0.00030695,0,0,0,0
14.64,0.008524,0.41915,0.00029496,0,0,0,0
16.64,0.009283,0.478,0.00038593,0,0,0,0
18.64,0.010163,0.538,0.00035894,0,0,0,0
20.64,0.011704,0.59586,0.00036593,0,0,0,0
22.64,0.013543,0.65686,0.00052686,0,0,0,0
24.64,0.015276,0.71629,0.00058083,0,0,0,0
26.64,0.016558,0.77815,0.00052386,0,0,0,0
28.64,0.017535,0.83585,0.00052386,0,0,0,0
30.64,0.018838,0.89514,0.00058783,0,0,0,0
32.64,0.020913,0.95315,0.00067477,0,0,0,0
34.64,0.022723,1.011,0.00087562,0,0,0,0
36.64,0.024576,1.069,0.0010475,0,0,0,0
38.64,0.025809,1.1241,0.00074872,0,0,0,0
40.64,0.027313,1.1819,0.00097353,0,0,0,0
42.64,0.029442,1.235,0.0010165,0,0,0,0
44.64,0.03198,1.289,0.0012982,0,0,0,0
46.64,0.034508,1.3404,0.0015668,0,0,0,0
48.64,0.037614,1.3889,0.0021467,0,0,0,0
50.64,0.042868,1.4249,0.0031441,0,0,0,0
52.64,0.049781,1.4564,0.0039741,0,0,0,0
54.64,0.056764,1.4877,0.0050134,0,0,0,0
56.64,0.063895,1.5143,0.0063021,0,0,0,0
58.64,0.072254,1.5404,0.0074422,0,0,0,0
60.64,0.080097,1.5637,0.008108,0,0,0,0
62.64,0.088077,1.5873,0.0084879,0,0,0,0
64.64,0.097,1.608,0.0093363,0,0,0,0
66.64,0.10646,1.6294,0.010725,0,0,0,0
68.64,0.11515,1.649,0.011894,0,0,0,0
70.64,0.12465,1.6687,0.012402,0,0,0,0
72.64,0.13444,1.6873,0.012651,0,0,0,0
74.64,0.14368,1.7053,0.013588,0,0,0,0
76.64,0.15356,1.7237,0.014882,0,0,0,0
78.64,0.16394,1.7403,0.015798,0,0,0,0
80.64,0.17326,1.7576,0.016369,0,0,0,0
82.64,0.18362,1.7737,0.016782,0,0,0,0
84.64,0.19404,1.79,0.017653,0,0,0,0
86.64,0.20384,1.8053,0.01882,0,0,0,0
88.64,0.21472,1.821,0.019644,0,0,0,0
90.64,0.22488,1.8363,0.020262,0,0,0,0
92.64,0.23508,1.8506,0.020871,0,0,0,0
94.64,0.24583,1.8657,0.021686,0,0,0,0
96.64,0.25617,1.8793,0.022428,0,0,0,0
98.64,0.26629,1.8933,0.023553,0,0,0,0
100.64,0.27726,1.9067,0.024071,0,0,0,0
102.64,0.28776,1.9207,0.024776,0,0,0,0
104.64,0.2981,1.9333,0.025525,0,0,0,0
106.64,0.30923,1.9457,0.026196,0,0,0,0
108.64,0.3193,1.959,0.027176,0,0,0,0
110.64,0.33019,1.971,0.027754,0,0,0,0
112.64,0.34147,1.9834,0.028557,0,0,0,0
114.64,0.35182,1.995,0.029376,0,0,0,0
116.64,0.36286,2.007,0.030028,0,0,0,0
118.64,0.37415,2.0184,0.030809,0,0,0,0
120.64,0.38462,2.0293,0.031753,0,0,0,0
122.64,0.39595,2.041,0.032533,0,0,0,0
124.64,0.40711,2.052,0.033054,0,0,0,0
126.64,0.41787,2.0627,0.033767,0,0,0,0
128.64,0.42998,2.073,0.034546,0,0,0,0
130.64,0.44031,2.0837,0.035389,0,0,0,0
132.64,0.45125,2.0933,0.036166,0,0,0,0
134.64,0.4631,2.104,0.036749,0,0,0,0
136.64,0.47398,2.1133,0.037364,0,0,0,0
138.64,0.48539,2.123,0.038366,0,0,0,0
140.64,0.49667,2.1323,0.039141,0,0,0,0
142.64,0.50753,2.1417,0.039787,0,0,0,0
144.64,0.51931,2.151,0.040335,0,0,0,0
146.64,0.53065,2.1593,0.041011,0,0,0,0
148.64,0.54149,2.1687,0.04201,0,0,0,0
150.64,0.55384,2.177,0.042686,0,0,0,0
152.64,0.56475,2.186,0.043329,0,0,0,0
154.64,0.57607,2.1944,0.043939,0,0,0,0
156.64,0.58825,2.203,0.044774,0,0,0,0
158.64,0.59805,2.211,0.045866,0,0,0,0
160.64,0.611,2.219,0.046539,0,0,0,0
162.64,0.62252,2.2273,0.047179,0,0,0,0
164.64,0.63352,2.235,0.047724,0,0,0,0
166.64,0.64557,2.243,0.048716,0,0,0,0
168.64,0.65719,2.2507,0.049706,0,0,0,0
170.64,0.66844,2.2586,0.0506,0,0,0,0
172.64,0.68045,2.2657,0.050919,0,0,0,0
174.64,0.69162,2.2733,0.051716,0,0,0,0
176.64,0.70337,2.2803,0.052704,0,0,0,0
178.64,0.71521,2.2877,0.053723,0,0,0,0
180.64,0.72613,2.2943,0.054391,0,0,0,0
182.64,0.73796,2.3013,0.054963,0,0,0,0
184.64,0.74952,2.3087,0.055725,0,0,0,0
186.64,0.7609,2.3153,0.056678,0,0,0,0
188.64,0.77259,2.3223,0.057819,0,0,0,0
190.64,0.78397,2.3283,0.058358,0,0,0,0
192.64,0.79544,2.335,0.059181,0,0,0,0
194.64,0.80755,2.342,0.059939,0,0,0,0
196.64,0.8191,2.3484,0.060982,0,0,0,0
198.64,0.8311,2.3543,0.06174,0,0,0,0
200.64,0.84317,2.3603,0.062749,0,0,0,0
202.64,0.85418,2.367,0.06338,0,0,0,0
204.64,0.86637,2.3733,0.06442,0,0,0,0
206.64,0.87796,2.3793,0.065238,0,0,0,0
208.64,0.88986,2.3853,0.065992,0,0,0,0
210.64,0.90191,2.391,0.066871,0,0,0,0
212.64,0.91344,2.3967,0.067907,0,0,0,0
214.64,0.92525,2.4027,0.068817,0,0,0,0
216.64,0.93709,2.4087,0.0696,0,0,0,0
218.64,0.9483,2.414,0.070508,0,0,0,0
220.64,0.96072,2.4197,0.07154,0,0,0,0
222.64,0.97225,2.425,0.072602,0,0,0,0
224.64,0.98379,2.4303,0.073569,0,0,0,0
226.64,0.99616,2.4357,0.074473,0,0,0,0
228.64,1.0076,2.441,0.07547,0,0,0,0
230.64,1.0192,2.4466,0.076434,0,0,0,0
232.64,1.0316,2.4513,0.077429,0,0,0,0
234.64,1.0432,2.4567,0.078516,0,0,0,0
236.64,1.0551,2.4613,0.079323,0,0,0,0
238.64,1.0671,2.4667,0.080532,0,0,0,0
240.64,1.0789,2.4717,0.081398,0,0,0,0
242.64,1.0911,2.476,0.082636,0,0,0,0
244.64,1.1026,2.481,0.083501,0,0,0,0
246.64,1.1145,2.486,0.08455,0,0,0,0
248.63,1.1267,2.4903,0.085814,0,0,0,0
250.64,1.1381,2.495,0.086768,0,0,0,0
252.64,1.1501,2.4997,0.087876,0,0,0,0
254.64,1.1617,2.504,0.088891,0,0,0,0
256.64,1.1733,2.5083,0.090211,0,0,0,0
258.64,1.1857,2.5123,0.091436,0,0,0,0
260.64,1.1972,2.517,0.092264,0,0,0,0
262.63,1.2087,2.521,0.093488,0,0,0,0
264.64,1.2209,2.5257,0.094863,0,0,0,0
266.64,1.2323,2.529,0.095992,0,0,0,0
268.64,1.2445,2.533,0.097149,0,0,0,0
270.64,1.2564,2.537,0.098215,0,0,0,0
272.64,1.2677,2.541,0.099584,0,0,0,0
274.63,1.2802,2.545,0.10104,0,0,0,0
276.63,1.2918,2.549,0.10216,0,0,0,0
278.63,1.3037,2.5527,0.10353,0,0,0,0
280.64,1.3161,2.556,0.10483,0,0,0,0
282.64,1.3279,2.5596,0.10616,0,0,0,0
284.64,1.34,2.5637,0.10764,0,0,0,0
286.63,1.352,2.567,0.10905,0,0,0,0
288.64,1.3637,2.57,0.11062,0,0,0,0
290.63,1.3764,2.574,0.11179,0,0,0,0
292.63,1.3883,2.5767,0.11329,0,0,0,0
294.63,1.4005,2.58,0.11475,0,0,0,0
296.63,1.4125,2.583,0.11613,0,0,0,0
298.63,1.4244,2.5867,0.11786,0,0,0,0
300.63,1.4369,2.5897,0.11926,0,0,0,0
302.63,1.449,2.5923,0.12084,0,0,0,0
304.63,1.4608,2.595,0.12245,0,0,0,0
306.63,1.4733,2.598,0.12426,0,0,0,0
308.63,1.4852,2.601,0.12616,0,0,0,0
310.63,1.4974,2.6037,0.12775,0,0,0,0
312.63,1.51,2.6063,0.12955,0,0,0,0
314.63,1.5219,2.6087,0.13132,0,0,0,0
316.63,1.5348,2.611,0.1332,0,0,0,0
318.63,1.5466,2.6137,0.13502,0,0,0,0
320.63,1.5589,2.616,0.13702,0,0,0,0
322.63,1.5719,2.6183,0.13897,0,0,0,0
324.63,1.5839,2.6207,0.14096,0,0,0,0
326.63,1.5965,2.6223,0.14297,0,0,0,0
328.63,1.6089,2.6243,0.14521,0,0,0,0
330.63,1.6212,2.6263,0.1475,0,0,0,0
332.63,1.6336,2.6287,0.1497,0,0,0,0
334.63,1.6461,2.6307,0.15192,0,0,0,0
336.63,1.6587,2.6323,0.15437,0,0,0,0
338.63,1.6718,2.634,0.15684,0,0,0,0
340.63,1.6837,2.6354,0.15948,0,0,0,0
342.63,1.6966,2.6367,0.16182,0,0,0,0
344.63,1.7091,2.6373,0.1647,0,0,0,0
346.63,1.7217,2.639,0.16743,0,0,0,0
348.63,1.7348,2.64,0.17035,0,0,0,0
350.63,1.7474,2.641,0.17349,0,0,0,0
352.63,1.7604,2.641,0.17668,0,0,0,0
354.63,1.7733,2.642,0.17996,0,0,0,0
356.63,1.7859,2.6427,0.18316,0,0,0,0
358.63,1.7991,2.643,0.18659,0,0,0,0
360.63,1.8119,2.643,0.19046,0,0,0,0
362.63,1.825,2.643,0.1944,0,0,0,0
364.63,1.8379,2.643,0.19829,0,0,0,0
366.63,1.851,2.642,0.20252,0,0,0,0
368.63,1.8645,2.6413,0.20678,0,0,0,0
370.63,1.8771,2.6407,0.21144,0,0,0,0
372.63,1.8905,2.6397,0.21605,0,0,0,0
374.63,1.9036,2.6377,0.22085,0,0,0,0
376.63,1.9164,2.6353,0.2263,0,0,0,0
378.63,1.9302,2.633,0.23146,0,0,0,0
380.63,1.9431,2.6307,0.23675,0,0,0,0
382.63,1.9567,2.6274,0.24262,0,0,0,0
384.63,1.9702,2.6237,0.24848,0,0,0,0
386.63,1.9835,2.619,0.2548,0,0,0,0
388.63,1.9975,2.6143,0.26124,0,0,0,0
390.63,2.0108,2.6083,0.26764,0,0,0,0
392.63,2.0249,2.602,0.27435,0,0,0,0
394.63,2.0385,2.595,0.28132,0,0,0,0
396.63,2.0525,2.587,0.28845,0,0,0,0
398.63,2.0669,2.578,0.2959,0,0,0,0
400.63,2.0804,2.5687,0.30317,0,0,0,0
402.63,2.0952,2.5573,0.31077,0,0,0,0
404.63,2.1091,2.546,0.31864,0,0,0,0
406.63,2.1233,2.533,0.32648,0,0,0,0
408.63,2.1381,2.519,0.3345,0,0,0,0
410.63,2.1521,2.504,0.3426,0,0,0,0
412.63,2.1671,2.4867,0.35102,0,0,0,0
414.63,2.1816,2.4693,0.35943,0,0,0,0
416.63,2.1965,2.4497,0.36819,0,0,0,0
418.63,2.2118,2.4284,0.37704,0,0,0,0
420.63,2.2264,2.404,0.38639,0,0,0,0
422.63,2.242,2.379,0.39589,0,0,0,0
424.63,2.2575,2.3503,0.4054,0,0,0,0
426.63,2.2739,2.3176,0.41561,0,0,0,0
427.13,2.2781,2.3084,0.41854,0,0,0,0