File: polyN_optimization/results_exp/AA6014-T4/NT6_00_1.csv
Time[s],Displacement[mm],Force[kN],AxStrain_1,AxStrain_2,Thickness[mm],OuterWidth[mm],InnerWidth[mm]
0.59,0,-0.0045575,0,0,1.1167,20,10
2.59,0.001442,0.064714,0.00020898,0,0,0,0
4.59,0.002931,0.14114,0.00014599,0,0,0,0
6.59,0.004118,0.21242,0.00025297,0,0,0,0
8.59,0.00398,0.25129,0.00028096,0,0,0,0
10.59,0.006025,0.30914,0.00018098,0,0,0,0
12.59,0.007392,0.369,0.00030395,0,0,0,0
14.59,0.008893,0.42615,0.00041991,0,0,0,0
16.59,0.009266,0.48814,0.00033194,0,0,0,0
18.59,0.010229,0.548,0.00042591,0,0,0,0
20.59,0.01166,0.61215,0.00039992,0,0,0,0
22.59,0.013442,0.67314,0.00038593,0,0,0,0
24.59,0.015235,0.73614,0.0004499,0,0,0,0
26.59,0.016272,0.79786,0.00055385,0,0,0,0
28.59,0.017034,0.85929,0.0007757,0,0,0,0
30.59,0.018112,0.922,0.00075871,0,0,0,0
32.59,0.019777,0.98086,0.00076171,0,0,0,0
34.59,0.022107,1.0441,0.00087562,0,0,0,0
36.59,0.023924,1.1027,0.00095954,0,0,0,0
38.59,0.025146,1.1639,0.00092257,0,0,0,0
40.59,0.026623,1.2211,0.00098352,0,0,0,0
42.59,0.028506,1.2794,0.0010105,0,0,0,0
44.59,0.031011,1.3349,0.0012582,0,0,0,0
46.59,0.033612,1.3883,0.0013151,0,0,0,0
48.59,0.036671,1.4366,0.0018782,0,0,0,0
50.59,0.041613,1.4786,0.002465,0,0,0,0
52.59,0.04784,1.5164,0.0031102,0,0,0,0
54.59,0.054085,1.548,0.004001,0,0,0,0
56.59,0.060739,1.5783,0.0053606,0,0,0,0
58.59,0.0689,1.6047,0.0065257,0,0,0,0
60.59,0.07681,1.6304,0.0070253,0,0,0,0
62.59,0.084786,1.6546,0.0076457,0,0,0,0
64.59,0.093354,1.677,0.008478,0,0,0,0
66.59,0.10235,1.6997,0.0098087,0,0,0,0
68.59,0.11075,1.7196,0.010832,0,0,0,0
70.59,0.1201,1.741,0.011343,0,0,0,0
72.59,0.12962,1.76,0.011721,0,0,0,0
74.59,0.13872,1.7796,0.012507,0,0,0,0
76.59,0.14833,1.7977,0.013674,0,0,0,0
78.59,0.15844,1.8157,0.014776,0,0,0,0
80.59,0.16783,1.8333,0.015292,0,0,0,0
82.59,0.17778,1.8503,0.015712,0,0,0,0
84.59,0.18829,1.8673,0.016501,0,0,0,0
86.59,0.19778,1.8836,0.017363,0,0,0,0
88.59,0.20819,1.9001,0.018537,0,0,0,0
90.59,0.21859,1.9157,0.019028,0,0,0,0
92.59,0.22844,1.932,0.019567,0,0,0,0
94.59,0.23919,1.9467,0.020134,0,0,0,0
96.59,0.24944,1.9614,0.021052,0,0,0,0
98.59,0.2594,1.976,0.021936,0,0,0,0
100.59,0.2704,1.99,0.022543,0,0,0,0
102.59,0.28078,2.0047,0.023041,0,0,0,0
104.59,0.29078,2.0177,0.023812,0,0,0,0
106.59,0.30205,2.0313,0.024648,0,0,0,0
108.59,0.31223,2.044,0.025388,0,0,0,0
110.59,0.32283,2.058,0.026101,0,0,0,0
112.59,0.33407,2.0703,0.026723,0,0,0,0
114.59,0.34435,2.083,0.027419,0,0,0,0
116.59,0.35523,2.095,0.028365,0,0,0,0
118.59,0.36644,2.107,0.028822,0,0,0,0
120.59,0.37676,2.119,0.029571,0,0,0,0
122.59,0.38817,2.1303,0.030191,0,0,0,0
124.59,0.3992,2.142,0.030972,0,0,0,0
126.59,0.40966,2.1533,0.031753,0,0,0,0
128.59,0.42152,2.1647,0.032436,0,0,0,0
130.59,0.4325,2.1754,0.033183,0,0,0,0
132.59,0.44341,2.1857,0.033736,0,0,0,0
134.59,0.4547,2.1963,0.034644,0,0,0,0
136.59,0.46568,2.2067,0.035325,0,0,0,0
138.59,0.47653,2.2173,0.036005,0,0,0,0
140.59,0.48823,2.2273,0.036685,0,0,0,0
142.59,0.49885,2.2377,0.037396,0,0,0,0
144.59,0.51034,2.247,0.038139,0,0,0,0
146.59,0.52174,2.2563,0.038753,0,0,0,0
148.59,0.53246,2.2657,0.039496,0,0,0,0
150.59,0.54396,2.275,0.040238,0,0,0,0
152.59,0.55519,2.284,0.040883,0,0,0,0
154.59,0.56616,2.2927,0.041592,0,0,0,0
156.59,0.57804,2.302,0.042364,0,0,0,0
158.59,0.58895,2.3103,0.043169,0,0,0,0
160.59,0.60003,2.319,0.043844,0,0,0,0
162.59,0.61177,2.3273,0.044389,0,0,0,0
164.59,0.62249,2.336,0.045096,0,0,0,0
166.59,0.63434,2.344,0.045833,0,0,0,0
168.59,0.64587,2.352,0.046603,0,0,0,0
170.59,0.65681,2.36,0.047276,0,0,0,0
172.59,0.66885,2.368,0.048076,0,0,0,0
174.59,0.68003,2.376,0.048843,0,0,0,0
176.59,0.69121,2.3836,0.049706,0,0,0,0
178.59,0.70301,2.391,0.050473,0,0,0,0
180.59,0.71402,2.399,0.051175,0,0,0,0
182.59,0.72549,2.4067,0.051876,0,0,0,0
184.59,0.73739,2.4137,0.052609,0,0,0,0
186.59,0.74819,2.421,0.053342,0,0,0,0
188.59,0.76009,2.428,0.053978,0,0,0,0
190.59,0.77152,2.435,0.054836,0,0,0,0
192.59,0.7826,2.4417,0.055598,0,0,0,0
194.59,0.79456,2.4483,0.056456,0,0,0,0
196.59,0.80581,2.4553,0.057153,0,0,0,0
198.59,0.81708,2.462,0.057977,0,0,0,0
200.59,0.82949,2.4687,0.058864,0,0,0,0
202.59,0.84044,2.4753,0.059687,0,0,0,0
204.59,0.8518,2.4813,0.060509,0,0,0,0
206.59,0.86361,2.4883,0.06133,0,0,0,0
208.59,0.87452,2.4947,0.062056,0,0,0,0
210.59,0.88682,2.5003,0.062907,0,0,0,0
212.59,0.89836,2.5067,0.063727,0,0,0,0
214.59,0.90951,2.5127,0.06464,0,0,0,0
216.59,0.92163,2.5187,0.065646,0,0,0,0
218.59,0.93301,2.5247,0.066401,0,0,0,0
220.59,0.94455,2.5307,0.067374,0,0,0,0
222.59,0.95665,2.5367,0.068189,0,0,0,0
224.59,0.96758,2.5423,0.069036,0,0,0,0
226.59,0.97956,2.5473,0.070101,0,0,0,0
228.59,0.99129,2.553,0.071165,0,0,0,0
230.59,1.0023,2.5587,0.072134,0,0,0,0
232.59,1.0143,2.5647,0.07282,0,0,0,0
234.59,1.0259,2.5697,0.073818,0,0,0,0
236.59,1.0376,2.5747,0.074847,0,0,0,0
238.59,1.0498,2.58,0.075812,0,0,0,0
240.59,1.0606,2.5853,0.076932,0,0,0,0
242.59,1.0728,2.5903,0.077988,0,0,0,0
244.59,1.0843,2.5957,0.078795,0,0,0,0
246.59,1.0958,2.6003,0.079943,0,0,0,0
248.59,1.108,2.605,0.08081,0,0,0,0
250.59,1.1193,2.61,0.0818,0,0,0,0
252.59,1.1307,2.615,0.082821,0,0,0,0
254.59,1.1428,2.6197,0.083995,0,0,0,0
256.58,1.154,2.624,0.08489,0,0,0,0
258.59,1.1657,2.629,0.085937,0,0,0,0
260.58,1.1778,2.633,0.087108,0,0,0,0
262.58,1.1893,2.637,0.088522,0,0,0,0
264.58,1.2012,2.6414,0.089504,0,0,0,0
266.58,1.2123,2.646,0.090517,0,0,0,0
268.59,1.2239,2.6503,0.09156,0,0,0,0
270.58,1.2363,2.654,0.092936,0,0,0,0
272.59,1.2478,2.658,0.094099,0,0,0,0
274.58,1.2597,2.6623,0.095503,0,0,0,0
276.58,1.2717,2.6663,0.096723,0,0,0,0
278.58,1.2831,2.67,0.09785,0,0,0,0
280.59,1.2955,2.674,0.09928,0,0,0,0
282.58,1.3074,2.6777,0.10083,0,0,0,0
284.59,1.3192,2.681,0.10219,0,0,0,0
286.58,1.332,2.685,0.10332,0,0,0,0
288.58,1.3432,2.6883,0.1048,0,0,0,0
290.58,1.3553,2.6917,0.10622,0,0,0,0
292.58,1.3674,2.6957,0.10782,0,0,0,0
294.58,1.3787,2.6987,0.10905,0,0,0,0
296.59,1.3918,2.7013,0.11058,0,0,0,0
298.58,1.4032,2.705,0.11215,0,0,0,0
300.58,1.4152,2.708,0.11392,0,0,0,0
302.58,1.4278,2.711,0.11553,0,0,0,0
304.58,1.4394,2.7137,0.11727,0,0,0,0
306.58,1.4516,2.7167,0.11876,0,0,0,0
308.58,1.4635,2.7193,0.1204,0,0,0,0
310.58,1.4749,2.722,0.12215,0,0,0,0
312.58,1.4881,2.7247,0.12414,0,0,0,0
314.58,1.4998,2.7273,0.12583,0,0,0,0
316.58,1.512,2.7297,0.1279,0,0,0,0
318.58,1.5247,2.732,0.12996,0,0,0,0
320.58,1.5366,2.734,0.13211,0,0,0,0
322.58,1.5494,2.7363,0.13411,0,0,0,0
324.58,1.5617,2.7387,0.13614,0,0,0,0
326.58,1.5742,2.7403,0.13856,0,0,0,0
328.58,1.5869,2.742,0.14087,0,0,0,0
330.58,1.5986,2.7437,0.14355,0,0,0,0
332.58,1.6113,2.7453,0.14573,0,0,0,0
334.58,1.6237,2.7467,0.14811,0,0,0,0
336.58,1.6358,2.748,0.15079,0,0,0,0
338.58,1.6485,2.749,0.15368,0,0,0,0
340.58,1.6609,2.7503,0.15664,0,0,0,0
342.58,1.6736,2.751,0.15942,0,0,0,0
344.58,1.6865,2.7517,0.16265,0,0,0,0
346.58,1.6989,2.752,0.16607,0,0,0,0
348.58,1.7124,2.7527,0.1695,0,0,0,0
350.58,1.725,2.752,0.17321,0,0,0,0
352.58,1.7375,2.7523,0.17684,0,0,0,0
354.58,1.7511,2.7516,0.18086,0,0,0,0
356.58,1.7636,2.751,0.18486,0,0,0,0
358.58,1.7772,2.7497,0.18931,0,0,0,0
360.58,1.7903,2.7483,0.19394,0,0,0,0
362.58,1.8036,2.7463,0.19852,0,0,0,0
364.58,1.8172,2.744,0.20352,0,0,0,0
366.58,1.83,2.741,0.20898,0,0,0,0
368.58,1.8438,2.738,0.21441,0,0,0,0
370.58,1.8574,2.734,0.22003,0,0,0,0
372.58,1.8708,2.729,0.2261,0,0,0,0
374.58,1.8849,2.7237,0.23208,0,0,0,0
376.58,1.8979,2.7177,0.23864,0,0,0,0
378.58,1.9121,2.7103,0.2452,0,0,0,0
380.58,1.9258,2.702,0.25199,0,0,0,0
382.58,1.9394,2.6933,0.25903,0,0,0,0
384.58,1.9539,2.683,0.26619,0,0,0,0
386.58,1.9673,2.6717,0.27344,0,0,0,0
388.58,1.9821,2.659,0.28087,0,0,0,0
390.58,1.9964,2.645,0.28875,0,0,0,0
392.58,2.0106,2.629,0.2967,0,0,0,0
394.58,2.0255,2.6127,0.30458,0,0,0,0
396.58,2.0399,2.5936,0.31279,0,0,0,0
398.58,2.0557,2.5733,0.32111,0,0,0,0
400.58,2.0697,2.5507,0.32984,0,0,0,0
402.58,2.086,2.5263,0.33881,0,0,0,0
404.58,2.1013,2.5004,0.34787,0,0,0,0
406.58,2.117,2.4707,0.35729,0,0,0,0
408.58,2.1333,2.4386,0.36695,0,0,0,0
410.58,2.1493,2.4019,0.37737,0,0,0,0
412.08,2.1626,2.3679,0.38549,0,0,0,0